Time (ms),Voltage (V)
0.0,46.15
10.0,242.23
19.0,512.99
29.0,574.54
39.0,404.96
50.0,269.14
59.0,253.95
69.0,252.66
79.0,217.64
90.0,181.12
100.0,159.17
109.0,125.22
119.0,62.27
130.0,19.81
140.0,33.54
149.0,28.14
159.0,-34.26
169.0,-60.5
180.0,-25.42
189.0,-40.14
199.0,-127.52
209.0,-174.56
220.0,-156.43
229.0,-148.21
239.0,-164.55
249.0,-172.57
260.0,-149.21
270.0,-87.75
279.0,-27.74
289.0,-23.44
300.0,-54.21
310.0,-57.62
319.0,-56.7
329.0,-103.76
339.0,-150.71
350.0,-148.39
359.0,-136.5
369.0,-145.23
379.0,-162.56
390.0,-183.4
399.0,-198.64
409.0,-199.16
419.0,-194.6
430.0,-191.52
440.0,-207.21
449.0,-257.54
459.0,-287.36
470.0,-254.41
480.0,-215.4
489.0,-207.09
499.0,-213.2
509.0,-232.11
520.0,-249.0
529.0,-244.84
539.0,-216.84
549.0,-164.73
560.0,-130.11
570.0,-144.08
579.0,-172.67
589.0,-195.31
600.0,-195.66
610.0,-154.6
619.0,-106.56
629.0,-79.43
640.0,-75.24
650.0,-98.55
659.0,-108.82
669.0,-73.17
679.0,-36.49
690.0,-30.47
699.0,-34.2
709.0,-35.17
719.0,-27.04
730.0,-8.02
740.0,0.24
749.0,1.5
759.0,19.46
770.0,35.66
780.0,37.29
789.0,50.25
799.0,68.38
809.0,65.37
820.0,60.52
829.0,78.18
839.0,101.95
849.0,118.62
860.0,127.51
869.0,124.62
879.0,130.51
889.0,164.4
900.0,183.87
910.0,154.51
919.0,122.57
929.0,120.79
940.0,107.17
950.0,55.1
959.0,39.93
969.0,112.38
979.0,186.69
990.0,205.78
999.0,193.91
1009.0,164.45
1019.0,153.51
1030.0,182.36
1039.0,200.53
1049.0,183.01
1059.0,172.09
1070.0,188.55
1080.0,194.45
1089.0,167.78
1099.0,145.4
1110.0,151.86
1120.0,160.48
1129.0,152.07
1139.0,141.58
1149.0,140.33
1160.0,144.52
1169.0,150.36
1179.0,136.95
1189.0,90.21
1200.0,58.87
1210.0,74.52
1219.0,99.58
1229.0,113.82
1240.0,119.2
1250.0,101.53
1259.0,72.94
1269.0,80.4
1280.0,98.87
1290.0,40.52
1299.0,-39.28
1309.0,-13.26
1319.0,66.99
1330.0,77.37
1339.0,27.26
1349.0,-0.33
1359.0,13.49
1370.0,14.12
1380.0,-10.09
1389.0,-5.21
1399.0,40.8
1410.0,81.51
1420.0,71.25
1429.0,19.27
1439.0,-15.1
1449.0,-11.28
1460.0,-10.66
1469.0,-37.53
1479.0,-56.15
1489.0,-41.5
1500.0,-15.72
1509.0,-0.9
1519.0,-10.31
1529.0,-23.95
1540.0,-12.53
1550.0,-3.51
1559.0,-4.5
1569.0,16.02
1580.0,31.75
1590.0,0.66
1599.0,-51.54
1609.0,-78.05
1619.0,-77.76
1630.0,-74.66
1639.0,-65.78
1649.0,-47.05
1659.0,-33.5
1670.0,-25.31
1679.0,-28.89
1689.0,-49.37
1699.0,-68.61
1710.0,-81.54
1720.0,-102.18
1729.0,-141.39
1739.0,-168.24
1750.0,-139.94
1760.0,-85.83
1769.0,-59.54
1779.0,-61.11
1789.0,-57.3
1800.0,-29.14
1809.0,-2.92
1819.0,-19.46
1829.0,-54.68
1840.0,-53.38
1850.0,-34.65
1859.0,-44.47
1869.0,-68.44
1880.0,-66.37
1890.0,-43.84
1899.0,-39.92
1909.0,-51.68
1920.0,-26.11
1930.0,24.43
1939.0,7.73
1949.0,-49.85
1959.0,-41.6
1970.0,9.9
1979.0,52.27
1989.0,94.66
1999.0,100.89
2010.0,36.3
2020.0,-40.45
2029.0,-57.24
2039.0,-16.07
2050.0,17.11
2060.0,-12.78
2069.0,-64.36
2079.0,-55.97
2089.0,-14.77
2100.0,-7.2
2109.0,-8.71
2119.0,-21.03
2129.0,-98.02
2140.0,-183.76
2149.0,-162.5
2159.0,-42.22
2169.0,52.96
2180.0,46.62
2190.0,-17.34
2199.0,-67.4
2209.0,-73.4
2220.0,-45.93
2230.0,-25.45
2239.0,-35.04
2249.0,-70.06
2259.0,-103.7
2270.0,-104.32
2279.0,-83.26
2289.0,-79.86
2299.0,-107.96
2310.0,-119.57
2319.0,-81.2
2329.0,-48.15
2339.0,-46.13
2350.0,-38.72
2360.0,-27.3
2369.0,-25.57
2379.0,-27.4
2390.0,-27.72
2400.0,-14.99
2409.0,12.07
2419.0,25.02
2429.0,4.51
2440.0,-12.86
2449.0,-4.79
2459.0,-10.12
2469.0,-14.92
2480.0,-0.49
2490.0,-23.57
2499.0,-58.23
2509.0,-23.99
2520.0,32.41
2530.0,45.71
2539.0,55.86
2549.0,82.6
2560.0,67.26
2570.0,13.27
2579.0,7.63
2589.0,55.89
2599.0,78.18
2610.0,52.14
2619.0,37.13
2629.0,69.63
2639.0,88.43
2650.0,59.71
2660.0,35.52
2669.0,33.22
2679.0,51.82
2690.0,70.37
2700.0,44.65
2709.0,9.91
2719.0,10.63
2729.0,34.77
2740.0,57.56
2749.0,63.42
2759.0,68.64
2769.0,74.18
2780.0,58.54
2789.0,45.35
2799.0,55.23
2809.0,63.55
2820.0,43.1
2830.0,9.14
2839.0,24.86
2849.0,79.25
2860.0,77.04
2870.0,24.34
2879.0,5.76
2889.0,32.0
2899.0,55.48
2910.0,61.76
2919.0,76.92
2929.0,98.74
2939.0,76.99
2950.0,-18.09
2959.0,-85.07
2969.0,-12.26
2979.0,84.1
2990.0,72.97
3000.0,28.12
3009.0,16.54
3019.0,22.47
3030.0,38.65
3040.0,56.04
3049.0,50.18
3059.0,7.51
3069.0,-15.65
3080.0,18.14
3089.0,28.74
3099.0,-4.25
3109.0,-8.28
3120.0,6.95
3130.0,-5.9
3139.0,-41.75
3149.0,-79.05
3160.0,-111.91
3170.0,-142.19
3179.0,-154.89
3189.0,-147.27
3200.0,-135.29
3210.0,-120.94
3219.0,-95.72
3229.0,-56.39
3239.0,-33.36
3250.0,-38.16
3259.0,-21.72
3269.0,21.2
3279.0,51.32
3290.0,68.94
3300.0,89.01
3309.0,112.88
3319.0,137.16
3330.0,148.18
3340.0,128.82
3349.0,91.95
3359.0,77.68
3369.0,85.52
3380.0,77.38
3389.0,55.6
3399.0,48.43
3409.0,48.14
3420.0,29.83
3429.0,7.89
3439.0,10.99
3449.0,20.64
3460.0,15.36
3470.0,4.84
3479.0,-7.36
3489.0,-16.37
3500.0,-15.44
3510.0,-13.17
3519.0,-9.15
3529.0,1.86
3539.0,7.61
3550.0,-8.11
3559.0,-39.25
3569.0,-57.18
3579.0,-53.01
3590.0,-37.37
3599.0,-9.41
3609.0,10.42
3619.0,-10.73
3630.0,-54.06
3640.0,-67.98
3649.0,-29.47
3659.0,25.72
3670.0,15.31
3680.0,-85.72
3689.0,-149.41
3699.0,-75.65
3709.0,-4.27
3720.0,-51.74
3729.0,-82.9
3739.0,-26.62
3749.0,-3.55
3760.0,-36.82
3770.0,-37.56
3779.0,-14.07
3789.0,-19.03
3800.0,-29.09
3810.0,-31.81
3819.0,-61.68
3829.0,-102.64
3840.0,-112.63
3850.0,-97.19
3859.0,-70.47
3869.0,-26.71
3879.0,34.39
3890.0,68.19
3899.0,31.49
3909.0,-19.33
3919.0,-20.28
3930.0,2.01
3940.0,15.67
3949.0,23.18
3959.0,23.81
3970.0,7.54
3980.0,-11.84
3989.0,0.15
3999.0,12.37
4009.0,-36.07
4020.0,-93.17
4029.0,-61.55
4039.0,16.76
4049.0,29.23
4060.0,-6.11
4069.0,-2.43
4079.0,21.61
4089.0,0.75
4100.0,-31.25
4110.0,-16.68
4119.0,2.06
4129.0,-15.04
4140.0,-18.36
4150.0,18.69
4159.0,42.24
4169.0,23.99
4179.0,-6.42
4190.0,-23.42
4199.0,-7.55
4209.0,26.85
4219.0,29.77
4230.0,8.49
4239.0,5.35
4249.0,22.07
4259.0,33.12
4270.0,11.99
4280.0,-34.57
4289.0,-63.46
4299.0,-57.67
4310.0,-53.48
4320.0,-66.08
4329.0,-45.42
4339.0,9.49
4349.0,40.45
4360.0,46.39
4369.0,36.85
4379.0,7.22
4389.0,-5.66
4400.0,19.36
4410.0,43.61
4419.0,25.66
4429.0,-7.99
4440.0,-11.26
4450.0,-7.07
4459.0,-17.8
4469.0,-18.39
4480.0,-2.46
4490.0,24.1
4499.0,44.75
4509.0,28.91
4519.0,-0.25
4530.0,6.05
4539.0,38.83
4549.0,65.38
4559.0,75.01
4570.0,47.08
4580.0,-22.23
4589.0,-57.28
4599.0,-1.84
4610.0,74.46
4620.0,85.76
4629.0,47.72
4639.0,21.33
4649.0,13.71
4660.0,1.49
4669.0,-3.93
4679.0,2.46
4689.0,11.89
4700.0,31.08
4709.0,49.31
4719.0,70.99
4729.0,128.22
4740.0,172.6
4750.0,112.29
4759.0,1.26
4769.0,-37.03
4780.0,-21.33
4790.0,-13.64
4799.0,0.75
4809.0,12.6
4819.0,-4.9
4830.0,-17.26
4839.0,-2.59
4849.0,5.23
4859.0,-4.95
4870.0,-6.47
4879.0,-9.68
4889.0,-42.39
4899.0,-71.81
4910.0,-63.11
4920.0,-44.57
4929.0,-42.39
4939.0,-39.39
4950.0,-24.23
4960.0,-17.09
4969.0,-21.22
4979.0,-15.38
4989.0,-3.67
5000.0,-0.3
5009.0,-1.29
5019.0,-3.37
5029.0,-7.57
5040.0,-19.81
5050.0,-33.45
5059.0,-28.5
5069.0,-21.43
5080.0,-41.88
5090.0,-61.41
5099.0,-42.01
5109.0,-8.02
5120.0,5.76
5130.0,5.83
5139.0,0.1
5149.0,-7.82
5159.0,-2.09
5170.0,9.51
5179.0,1.33
5189.0,-9.79
5199.0,7.79
5210.0,26.91
5220.0,11.55
5229.0,-5.82
5239.0,-5.78
5250.0,-19.69
5260.0,-23.33
5269.0,10.99
5279.0,22.11
5289.0,-10.98
5300.0,-24.98
5309.0,-9.2
5319.0,-5.29
5329.0,-18.64
5340.0,-15.34
5349.0,46.08
5359.0,158.44
5369.0,240.26
5380.0,244.13
5390.0,236.1
5399.0,268.6
5409.0,278.82
5420.0,186.08
5430.0,26.37
5439.0,-54.63
5449.0,-19.63
5459.0,-17.11
5470.0,-104.92
5479.0,-171.24
5489.0,-170.34
5499.0,-165.98
5510.0,-182.78
5519.0,-179.94
5529.0,-153.08
5539.0,-140.41
5550.0,-138.13
5560.0,-113.06
5569.0,-76.58
5579.0,-82.22
5590.0,-129.26
5600.0,-145.07
5609.0,-110.89
5619.0,-80.82
5629.0,-75.4
5640.0,-68.92
5649.0,-36.8
5659.0,9.37
5669.0,22.63
5680.0,-6.11
5690.0,-23.83
5699.0,-2.35
5709.0,18.57
5720.0,2.82
5730.0,-26.86
5739.0,-35.42
5749.0,-18.6
5760.0,1.86
5770.0,0.01
5779.0,-3.14
5789.0,20.48
5799.0,33.24
5810.0,15.24
5819.0,20.27
5829.0,63.98
5839.0,68.24
5850.0,10.12
5860.0,-19.23
5869.0,13.64
5879.0,49.09
5890.0,64.5
5900.0,79.89
5909.0,90.63
5919.0,67.79
5929.0,20.6
5940.0,10.94
5949.0,52.47
5959.0,74.76
5969.0,48.64
5980.0,36.48
5989.0,55.01
5999.0,44.31
6009.0,18.71
6020.0,20.29
6030.0,12.8
6039.0,12.07
6049.0,49.72
6060.0,50.4
6070.0,14.05
6079.0,33.97
6089.0,79.37
6099.0,73.87
6110.0,44.75
6119.0,32.08
6129.0,24.67
6139.0,15.67
6150.0,31.13
6159.0,71.25
6169.0,78.15
6179.0,40.25
6190.0,18.77
6200.0,12.65
6209.0,-17.86
6219.0,-33.55
6230.0,8.69
6240.0,56.07
6249.0,33.05
6259.0,-32.54
6269.0,-43.69
6280.0,7.98
6289.0,39.66
6299.0,31.85
6309.0,15.51
6320.0,-37.45
6330.0,-103.41
6339.0,-77.89
6349.0,11.18
6360.0,45.5
6370.0,23.24
6379.0,-0.28
6389.0,-6.76
6400.0,1.78
6410.0,-0.82
6419.0,-21.37
6429.0,-28.44
6439.0,-22.97
6450.0,-37.55
6459.0,-72.44
6469.0,-85.95
6479.0,-49.39
6490.0,10.17
6500.0,32.35
6509.0,-1.83
6519.0,-24.49
6530.0,5.93
6540.0,36.44
6549.0,32.23
6559.0,9.81
6569.0,-8.71
6580.0,-11.28
6589.0,0.18
6599.0,14.23
6609.0,3.67
6620.0,-34.1
6629.0,-57.41
6639.0,-58.9
6649.0,-63.18
6660.0,-68.19
6670.0,-73.52
6679.0,-70.77
6689.0,-37.52
6700.0,-5.81
6710.0,-23.76
6719.0,-51.55
6729.0,-24.18
6739.0,1.89
6750.0,-32.27
6759.0,-44.18
6769.0,-9.14
6779.0,-7.79
6790.0,-25.41
6799.0,-5.59
6809.0,19.13
6819.0,6.52
6830.0,-24.24
6840.0,-47.73
6849.0,-60.33
6859.0,-45.47
6870.0,-7.45
6880.0,19.26
6889.0,54.15
6899.0,120.06
6909.0,124.17
6920.0,4.39
6929.0,-103.08
6939.0,-71.7
6949.0,6.38
6960.0,5.18
6970.0,-37.78
6979.0,-28.35
6989.0,6.78
7000.0,-35.28
7010.0,-132.45
7019.0,-159.1
7029.0,-107.66
7040.0,-65.39
7050.0,-62.98
7059.0,-75.42
7069.0,-66.84
7079.0,-30.63
7090.0,20.69
7099.0,71.95
7109.0,88.2
7119.0,76.59
7130.0,84.57
7140.0,121.88
7149.0,165.7
7159.0,157.89
7170.0,69.96
7180.0,10.78
7189.0,61.43
7199.0,117.08
7209.0,91.03
7220.0,35.72
7229.0,-18.55
7239.0,-68.28
7249.0,-56.62
7260.0,1.01
7269.0,28.61
7279.0,40.35
7289.0,54.13
7300.0,43.45
7310.0,26.27
7319.0,21.52
7329.0,17.3
7340.0,23.57
7350.0,52.56
7359.0,81.14
7369.0,76.58
7379.0,38.12
7390.0,1.7
7399.0,13.47
7409.0,65.25
7419.0,93.9
7430.0,94.53
7439.0,99.11
7449.0,83.62
7459.0,25.4
7470.0,-49.9
7480.0,-85.73
7489.0,-59.35
7499.0,-19.49
7510.0,16.06
7520.0,39.75
7529.0,27.79
7539.0,31.75
7549.0,57.84
7560.0,42.22
7569.0,2.31
7579.0,-29.22
7589.0,-56.01
7600.0,-70.13
7610.0,-43.73
7619.0,8.72
7629.0,14.26
7640.0,-9.14
7650.0,-1.02
7659.0,8.81
7669.0,4.18
7680.0,1.74
7690.0,10.24
7699.0,20.35
7709.0,-8.77
7719.0,-42.92
7730.0,-35.94
7739.0,-30.74
7749.0,-26.24
7759.0,-15.96
7770.0,-50.12
7780.0,-93.08
7789.0,-64.79
7799.0,1.76
7810.0,19.17
7820.0,-10.93
7829.0,-39.84
7839.0,-54.85
7849.0,-48.9
7860.0,-36.61
7869.0,-48.17
7879.0,-64.54
7889.0,-58.16
7900.0,-32.73
7909.0,-15.57
7919.0,-22.02
7929.0,-33.47
7940.0,-54.67
7950.0,-70.69
7959.0,-41.76
7969.0,-6.82
7980.0,-0.85
7990.0,0.97
7999.0,11.33
8009.0,40.44
8019.0,63.75
8030.0,20.83
8039.0,-73.98
8049.0,-101.55
8059.0,-4.36
8070.0,79.55
8079.0,68.81
8089.0,52.59
8099.0,33.12
8110.0,-29.12
8120.0,-81.62
8129.0,-86.56
8139.0,-53.32
8150.0,-7.57
8160.0,17.23
8169.0,-8.98
8179.0,-58.02
8189.0,-37.96
8200.0,22.45
8209.0,12.1
8219.0,-44.2
8229.0,-71.58
8240.0,-56.24
8250.0,-19.93
8259.0,-0.7
8269.0,-7.74
8280.0,-7.62
8290.0,53.83
8299.0,165.29
8309.0,225.18
8320.0,199.21
8330.0,158.94
8339.0,160.38
8349.0,172.3
8359.0,137.56
8370.0,79.8
8379.0,44.92
8389.0,24.59
8399.0,-12.99
8410.0,-85.72
8420.0,-139.28
8429.0,-131.24
8439.0,-122.6
8450.0,-130.44
8460.0,-115.22
8469.0,-107.17
8479.0,-131.99
8489.0,-157.29
8500.0,-155.54
8509.0,-132.01
8519.0,-113.63
8529.0,-98.73
8540.0,-71.12
8549.0,-41.55
8559.0,-23.31
8569.0,-15.34
8580.0,-8.4
8590.0,-17.97
8599.0,-43.87
8609.0,-40.87
8620.0,-18.83
8630.0,-12.96
8639.0,-17.21
8649.0,-32.09
8659.0,-25.3
8670.0,20.67
8679.0,37.32
8689.0,11.98
8699.0,-1.22
8710.0,9.08
8719.0,26.27
8729.0,39.16
8739.0,42.78
8750.0,28.78
8760.0,9.43
8769.0,4.16
8779.0,8.21
8790.0,30.61
8800.0,54.37
8809.0,51.21
8819.0,53.87
8829.0,60.45
8840.0,42.44
8849.0,31.94
8859.0,61.2
8869.0,127.84
8880.0,179.64
8890.0,144.67
8899.0,24.9
8909.0,-77.65
8920.0,-39.86
8930.0,78.84
8939.0,105.57
8949.0,67.46
8960.0,76.59
8970.0,101.43
8979.0,83.92
8989.0,44.68
8999.0,31.19
9010.0,35.93
9019.0,19.21
9029.0,-10.1
9039.0,-18.21
9050.0,14.43
9060.0,50.45
9069.0,32.19
9079.0,-9.21
9090.0,-15.86
9100.0,22.49
9109.0,70.68
9119.0,73.27
9129.0,40.66
9140.0,24.08
9149.0,33.33
9159.0,38.99
9169.0,22.26
9180.0,9.66
9189.0,12.59
9199.0,13.83
9209.0,3.95
9220.0,-28.03
9230.0,-50.28
9239.0,-32.53
9249.0,-21.62
9260.0,-28.82
9270.0,-15.72
9279.0,0.22
9289.0,-5.68
9299.0,-17.11
9310.0,-13.27
9319.0,8.03
9329.0,28.19
9339.0,30.57
9350.0,4.49
9359.0,-36.45
9369.0,-47.48
9379.0,-15.52
9390.0,16.94
9400.0,7.54
9409.0,-23.1
9419.0,-23.47
9430.0,0.59
9440.0,4.59
9449.0,-22.27
9459.0,-31.44
9469.0,3.61
9480.0,8.99
9489.0,-30.29
9499.0,-21.58
9509.0,19.57
9520.0,15.73
9530.0,-12.28
9539.0,-23.38
9549.0,-25.59
9560.0,-37.16
9570.0,-44.72
9579.0,-34.07
9589.0,-28.07
9600.0,-26.12
9610.0,-11.9
9619.0,-5.53
9629.0,-8.63
9639.0,-1.67
9650.0,-2.51
9659.0,-29.93
9669.0,-44.77
9679.0,-18.38
9690.0,-2.89
9700.0,-23.53
9709.0,-28.88
9719.0,-9.96
9730.0,-6.5
9740.0,-23.99
9749.0,-36.02
9759.0,-16.98
9769.0,27.27
9780.0,28.54
9789.0,-62.0
9799.0,-134.99
9809.0,-72.09
9820.0,17.8
9829.0,2.98
9839.0,-48.71
9849.0,-49.46
9860.0,-26.62
9870.0,-28.15
9879.0,-44.22
9889.0,-48.71
9900.0,-33.04
9910.0,-0.26
9919.0,12.22
9929.0,-7.38
9939.0,-7.54
9950.0,13.37
9959.0,12.33
9969.0,-1.05
9979.0,-7.54
9990.0,-7.05
9999.0,1.76
10009.0,6.26
10019.0,6.51
10030.0,19.94
10040.0,26.98
10049.0,-2.8
10059.0,-33.15
10070.0,-8.43
10080.0,37.85
10089.0,38.13
10099.0,5.29
10109.0,-19.71
10120.0,-47.13
10129.0,-86.11
10139.0,-116.05
10149.0,-133.76
10160.0,-144.27
10170.0,-142.95
10179.0,-119.93
10189.0,-58.08
10200.0,5.23
10210.0,7.1
10219.0,-18.98
10229.0,-3.55
10240.0,43.53
10250.0,65.91
10259.0,52.47
10269.0,57.32
10279.0,99.96
10290.0,119.3
10299.0,86.2
10309.0,58.0
10319.0,80.88
10330.0,121.14
10340.0,119.36
10349.0,84.6
10359.0,70.66
10370.0,75.21
10380.0,72.69
10389.0,63.36
10399.0,42.6
10409.0,35.12
10420.0,65.67
10429.0,85.12
10439.0,67.84
10449.0,62.85
10460.0,70.53
10469.0,45.54
10479.0,19.87
10489.0,35.43
10500.0,44.58
10510.0,24.4
10519.0,29.97
10529.0,64.09
10540.0,63.96
10550.0,21.4
10559.0,-21.93
10569.0,-44.48
10579.0,-44.95
10590.0,-43.86
10599.0,-63.06
10609.0,-76.68
10619.0,-51.75
10630.0,-5.74
10639.0,34.31
10649.0,59.27
10659.0,63.65
10670.0,45.56
10680.0,-14.01
10689.0,-91.27
10699.0,-81.34
10710.0,8.0
10720.0,29.24
10729.0,-32.61
10739.0,-65.25
10749.0,-46.8
10760.0,-24.94
10769.0,-25.24
10779.0,-51.43
10789.0,-78.08
10800.0,-71.37
10810.0,-37.12
10819.0,-12.86
10829.0,-7.58
10840.0,9.9
10850.0,27.17
10859.0,3.74
10869.0,-22.22
10880.0,-8.86
10890.0,1.43
10899.0,-15.33
10909.0,-25.78
10919.0,-22.65
10930.0,-23.53
10939.0,-21.45
10949.0,-9.74
10959.0,-14.7
10970.0,-38.88
10980.0,-40.27
10989.0,-25.65
10999.0,-38.17
11010.0,-66.22
11020.0,-73.98
11029.0,-55.9
11039.0,-32.94
11049.0,-20.91
11060.0,-7.48
11069.0,19.07
11079.0,35.44
11089.0,15.83
11100.0,-7.42
11109.0,-4.45
11119.0,-6.06
11129.0,-11.92
11140.0,-5.74
11150.0,-17.7
11159.0,-42.08
11169.0,-36.08
11180.0,-2.88
11190.0,15.67
11199.0,22.54
11209.0,48.34
11219.0,50.65
11230.0,9.29
11239.0,-7.12
11249.0,6.97
11259.0,2.57
11270.0,-0.65
11279.0,22.74
11289.0,42.12
11299.0,38.95
11310.0,31.44
11320.0,31.7
11329.0,30.34
11339.0,19.93
11350.0,5.15
11360.0,-10.6
11369.0,-23.9
11379.0,-23.79
11389.0,-7.76
11400.0,8.45
11409.0,17.2
11419.0,19.85
11429.0,14.53
11440.0,18.64
11450.0,39.33
11459.0,43.64
11469.0,32.49
11480.0,39.4
11490.0,42.6
11499.0,11.28
11509.0,-18.48
11520.0,-14.73
11530.0,-7.25
11539.0,-16.37
11549.0,-22.61
11559.0,-13.88
11570.0,9.24
11579.0,40.19
11589.0,67.19
11599.0,96.59
11610.0,149.13
11620.0,210.02
11629.0,200.34
11639.0,106.04
11650.0,71.94
11660.0,163.3
11669.0,234.57
11679.0,191.96
11689.0,113.14
11700.0,67.53
11709.0,15.34
11719.0,-90.57
11729.0,-207.54
11740.0,-250.68
11749.0,-216.94
11759.0,-191.04
11769.0,-199.94
11780.0,-205.04
11790.0,-213.25
11799.0,-228.83
11809.0,-206.38
11820.0,-144.1
11830.0,-102.11
11839.0,-93.91
11849.0,-75.92
11859.0,-58.54
11870.0,-73.34
11879.0,-74.65
11889.0,-40.29
11899.0,-16.86
11910.0,-1.42
11919.0,18.26
11929.0,-3.07
11939.0,-47.89
11950.0,-53.22
11960.0,-50.46
11969.0,-77.94
11979.0,-76.38
11990.0,-14.26
12000.0,28.06
12009.0,3.02
12019.0,-28.24
12029.0,-8.08
12040.0,56.47
12049.0,101.54
12059.0,70.08
12069.0,10.94
12080.0,9.68
12090.0,43.97
12099.0,45.08
12109.0,24.0
12120.0,17.19
12130.0,30.59
12139.0,60.43
12149.0,70.35
12160.0,34.87
12170.0,-1.9
12179.0,9.46
12189.0,56.93
12199.0,76.12
12210.0,46.22
12219.0,30.72
12229.0,59.82
12239.0,88.46
12250.0,83.35
12260.0,60.25
12269.0,38.63
12279.0,21.26
12290.0,16.16
12300.0,19.16
12309.0,23.95
12319.0,38.08
12329.0,35.14
12340.0,20.58
12349.0,49.21
12359.0,79.37
12369.0,51.6
12380.0,21.46
12389.0,31.46
12399.0,37.28
12409.0,19.96
12420.0,14.07
12430.0,29.68
12439.0,46.22
12449.0,41.53
12460.0,16.96
12470.0,7.5
12479.0,18.34
12489.0,11.79
12499.0,-5.33
12510.0,-1.1
12519.0,17.02
12529.0,34.35
12539.0,26.83
12550.0,-13.03
12559.0,-33.68
12569.0,-6.27
12579.0,21.41
12590.0,17.62
12600.0,5.56
12609.0,-33.3
12619.0,-91.59
12630.0,-64.31
12640.0,35.94
12649.0,55.95
12659.0,-35.9
12669.0,-122.88
12680.0,-119.16
12689.0,-55.34
12699.0,-8.77
12709.0,-1.13
12720.0,-5.95
12730.0,0.83
12739.0,17.84
12749.0,31.57
12760.0,33.65
12770.0,16.0
12779.0,2.65
12789.0,9.83
12800.0,2.3
12810.0,-14.4
12819.0,-12.98
12829.0,-14.48
12839.0,-26.97
12850.0,-29.53
12859.0,-11.44
12869.0,5.66
12879.0,13.91
12890.0,36.19
12900.0,35.48
12909.0,-12.77
12919.0,-48.62
12930.0,-49.19
12940.0,-46.28
12949.0,-57.59
12959.0,-83.24
12969.0,-117.15
12980.0,-150.9
12989.0,-166.79
12999.0,-161.91
13009.0,-140.86
13020.0,-87.49
13029.0,-33.98
13039.0,-22.24
13049.0,-18.1
13060.0,-3.65
13070.0,3.89
13079.0,17.23
13089.0,49.44
13100.0,85.98
13110.0,105.72
13119.0,114.36
13129.0,124.59
13139.0,139.52
13150.0,157.77
13159.0,135.06
13169.0,78.04
13179.0,72.65
13190.0,88.56
13199.0,53.19
13209.0,27.51
13219.0,62.47
13230.0,90.41
13240.0,48.49
13249.0,13.33
13259.0,72.57
13270.0,132.37
13280.0,101.13
13289.0,47.86
13299.0,35.11
13309.0,32.97
13320.0,-7.97
13329.0,-68.83
13339.0,-78.52
13349.0,-27.39
13360.0,24.83
13370.0,42.54
13379.0,55.38
13389.0,71.11
13400.0,59.97
13410.0,57.14
13419.0,77.55
13429.0,68.63
13440.0,5.64
13450.0,-101.42
13459.0,-168.33
13469.0,-126.46
13479.0,-53.69
13490.0,-21.49
13499.0,-19.74
13509.0,-27.51
13519.0,-27.96
13530.0,-17.23
13540.0,11.77
13549.0,34.04
13559.0,13.36
13570.0,-17.09
13580.0,-36.73
13589.0,-69.67
13599.0,-104.96
13609.0,-100.29
13620.0,-49.33
13629.0,-24.01
13639.0,-50.92
13649.0,-56.98
13660.0,-19.92
13669.0,21.36
13679.0,28.8
13689.0,1.47
13700.0,-17.5
13710.0,-36.76
13719.0,-73.62
13729.0,-85.19
13740.0,-65.65
13750.0,-60.08
13759.0,-64.69
13769.0,-41.27
13779.0,-29.37
13790.0,-69.07
13799.0,-78.2
13809.0,-34.42
13819.0,-21.74
13830.0,-23.06
13839.0,4.04
13849.0,7.18
13859.0,-18.73
13870.0,-22.06
13880.0,-4.53
13889.0,10.09
13899.0,10.65
13910.0,-13.29
13920.0,-39.75
13929.0,-38.8
13939.0,-31.19
13949.0,-32.82
13960.0,-27.66
13969.0,-24.19
13979.0,-13.77
13989.0,14.9
14000.0,25.53
14010.0,14.29
14019.0,1.69
14029.0,-10.03
14040.0,-8.81
14050.0,20.38
14059.0,67.59
14069.0,71.16
14080.0,14.94
14090.0,-13.58
14099.0,22.04
14109.0,72.51
14119.0,90.51
14130.0,56.68
14139.0,10.73
14149.0,-0.61
14159.0,0.99
14170.0,-10.65
14180.0,-18.66
14189.0,-10.02
14199.0,-8.47
14210.0,-14.02
14220.0,5.51
14229.0,23.05
14239.0,9.26
14249.0,-7.19
14260.0,-18.77
14269.0,-27.59
14279.0,-22.81
14289.0,-9.7
14300.0,-3.44
14309.0,-22.22
14319.0,-36.13
14329.0,18.21
14340.0,121.81
14350.0,196.71
14359.0,213.65
14369.0,196.27
14380.0,179.42
14390.0,176.25
14399.0,168.17
14409.0,142.17
14419.0,79.41
14430.0,-63.22
14439.0,-211.64
14449.0,-204.74
14459.0,-101.45
14470.0,-78.83
14479.0,-96.58
14489.0,-73.74
14499.0,-75.01
14510.0,-104.01
14520.0,-90.53
14529.0,-49.66
14539.0,-40.26
14550.0,-55.95
14560.0,-56.82
14569.0,-56.87
14579.0,-71.86
14589.0,-83.63
14600.0,-91.08
14609.0,-88.34
14619.0,-69.11
14629.0,-37.83
14640.0,-9.66
14650.0,-13.08
14659.0,-13.72
14669.0,20.4
14680.0,42.07
14690.0,37.03
14699.0,22.32
14709.0,7.41
14720.0,17.28
14730.0,41.57
14739.0,43.83
14749.0,15.38
14759.0,-8.7
14770.0,1.1
14779.0,4.23
14789.0,-12.32
14799.0,-9.8
14810.0,14.54
14820.0,45.63
14829.0,59.31
14839.0,60.54
14850.0,64.43
14860.0,37.78
14869.0,-0.9
14879.0,-6.14
14889.0,1.44
14900.0,0.79
14909.0,8.35
14919.0,47.12
14929.0,77.26
14940.0,45.55
14949.0,8.83
14959.0,14.81
14969.0,29.99
14980.0,46.34
14990.0,64.79
14999.0,68.13
15009.0,52.21
15020.0,32.73
15030.0,22.09
15039.0,15.31
15049.0,20.83
15059.0,24.93
15070.0,1.39
15079.0,-13.62
15089.0,7.67
15099.0,38.76
15110.0,52.25
15119.0,30.69
15129.0,-4.79
15139.0,-4.15
15150.0,28.81
15160.0,32.4
15169.0,-4.02
15179.0,-2.25
15190.0,43.26
15200.0,42.28
15209.0,1.7
15219.0,-7.1
15229.0,16.9
15240.0,46.27
15249.0,61.63
15259.0,46.82
15269.0,9.54
15280.0,-15.31
15290.0,-7.87
15299.0,5.48
15309.0,4.4
15320.0,-6.88
15330.0,-18.34
15339.0,-2.77
15349.0,20.49
15360.0,9.07
15370.0,-6.41
15379.0,5.52
15389.0,29.36
15399.0,43.21
15410.0,19.19
15419.0,-40.21
15429.0,-64.28
15439.0,-9.57
15450.0,46.47
15460.0,34.42
15469.0,-0.8
15479.0,-17.95
15490.0,-27.27
15500.0,-34.94
15509.0,-24.6
15519.0,34.27
15529.0,114.51
15540.0,141.17
15549.0,95.49
15559.0,-3.73
15569.0,-112.01
15580.0,-132.82
15589.0,-47.69
15599.0,23.73
15609.0,1.87
15620.0,-48.98
15630.0,-57.1
15639.0,-44.74
15649.0,-34.55
15660.0,-11.42
15670.0,9.76
15679.0,6.61
15689.0,-24.99
15699.0,-85.82
15710.0,-154.36
15719.0,-198.14
15729.0,-229.68
15739.0,-291.65
15750.0,-361.85
15759.0,-375.2
15769.0,-333.7
15779.0,-287.74
15790.0,-253.5
15800.0,-213.68
15809.0,-157.37
15819.0,-94.8
15830.0,-41.91
15840.0,11.28
15849.0,70.6
15859.0,98.82
15869.0,94.19
15880.0,110.9
15889.0,150.15
15899.0,156.09
15909.0,130.08
15920.0,131.59
15930.0,165.09
15939.0,180.65
15949.0,167.97
15960.0,151.63
15970.0,132.99
15979.0,111.52
15989.0,110.49
16000.0,123.34
16010.0,119.81
16019.0,110.75
16029.0,112.94
16039.0,103.93
16050.0,75.47
16059.0,59.85
16069.0,79.67
16079.0,113.22
16090.0,122.31
16100.0,99.08
16109.0,69.19
16119.0,58.72
16130.0,60.38
16140.0,48.67
16149.0,25.97
16159.0,14.59
16169.0,12.74
16180.0,-4.97
16189.0,-28.4
16199.0,-27.55
16209.0,-16.26
16220.0,-8.48
16229.0,3.78
16239.0,21.02
16249.0,35.79
16260.0,6.32
16270.0,-74.75
16279.0,-94.93
16289.0,-0.93
16300.0,79.5
16310.0,54.03
16319.0,-6.49
16329.0,-26.14
16339.0,-26.02
16350.0,-25.35
16359.0,-6.82
16369.0,-0.61
16379.0,-25.36
16390.0,-33.8
16399.0,-24.25
16409.0,-29.85
16419.0,-38.34
16430.0,-35.01
16440.0,-29.39
16449.0,-33.07
16459.0,-42.43
16470.0,-35.63
16480.0,-18.69
16489.0,-22.46
16499.0,-28.18
16509.0,-6.88
16520.0,6.86
16529.0,-5.77
16539.0,-12.17
16549.0,-12.96
16560.0,-37.79
16570.0,-75.36
16579.0,-90.93
16589.0,-80.49
16600.0,-63.11
16610.0,-58.51
16619.0,-67.07
16629.0,-67.84
16640.0,-53.37
16650.0,-27.4
16659.0,-0.1
16669.0,7.31
16679.0,0.53
16690.0,-7.66
16699.0,-20.64
16709.0,-24.8
16719.0,-19.26
16730.0,-20.4
16740.0,-20.87
16749.0,-18.13
16759.0,-25.75
16770.0,-39.38
16780.0,-37.82
16789.0,-10.59
16799.0,27.25
16809.0,61.41
16820.0,98.48
16829.0,133.24
16839.0,145.31
16849.0,147.62
16860.0,166.51
16869.0,174.97
16879.0,151.31
16889.0,141.87
16900.0,157.62
16910.0,140.36
16919.0,85.29
16929.0,29.42
16940.0,-46.95
16950.0,-144.96
16959.0,-187.39
16969.0,-154.92
16979.0,-146.6
16990.0,-196.94
16999.0,-214.37
17009.0,-179.19
17019.0,-154.19
17030.0,-141.07
17039.0,-116.78
17049.0,-94.1
17059.0,-87.42
17070.0,-93.29
17080.0,-89.29
17089.0,-50.66
17099.0,-7.69
17110.0,-22.21
17120.0,-71.02
17129.0,-71.41
17139.0,-30.03
17149.0,-11.59
17160.0,-13.22
17169.0,-11.53
17179.0,-7.41
17189.0,14.57
17200.0,55.54
17210.0,89.41
17219.0,88.8
17229.0,31.74
17240.0,-34.12
17250.0,-20.25
17259.0,53.88
17269.0,101.53
17280.0,101.1
17290.0,80.41
17299.0,68.28
17309.0,69.53
17319.0,53.77
17330.0,9.62
17339.0,-36.38
17349.0,-70.41
17359.0,-76.95
17370.0,-41.1
17380.0,-2.5
17389.0,3.87
17399.0,8.96
17410.0,37.64
17420.0,64.15
17429.0,61.3
17439.0,49.34
17449.0,57.97
17460.0,59.64
17469.0,26.34
17479.0,2.05
17489.0,27.78
17500.0,63.43
17509.0,56.77
17519.0,19.72
17529.0,-17.63
17540.0,-58.47
17550.0,-96.26
17559.0,-86.44
17569.0,-25.34
17580.0,21.31
17590.0,24.96
17599.0,39.39
17609.0,86.63
17619.0,99.42
17630.0,60.21
17639.0,45.81
17649.0,65.58
17659.0,67.17
17670.0,69.87
17679.0,103.69
17689.0,132.02
17699.0,116.3
17710.0,80.7
17720.0,64.29
17729.0,51.91
17739.0,35.62
17750.0,38.21
17760.0,52.62
17769.0,50.6
17779.0,20.45
17789.0,7.79
17800.0,46.09
17809.0,59.42
17819.0,7.83
17829.0,-24.85
17840.0,6.17
17850.0,35.24
17859.0,9.78
17869.0,-21.22
17880.0,-10.83
17890.0,-3.67
17899.0,-20.17
17909.0,-15.47
17920.0,8.27
17930.0,10.46
17939.0,2.37
17949.0,16.44
17959.0,18.98
17970.0,-22.03
17979.0,-50.96
17989.0,-41.89
17999.0,-28.7
18010.0,-6.72
18020.0,14.58
18029.0,-18.72
18039.0,-84.3
18050.0,-73.79
18060.0,-1.78
18069.0,-17.29
18079.0,-113.92
18089.0,-149.17
18100.0,-76.1
18109.0,43.32
18119.0,100.88
18129.0,62.87
18140.0,0.2
18149.0,-46.23
18159.0,-59.19
18169.0,-37.47
18180.0,-29.69
18190.0,-61.09
18199.0,-118.24
18209.0,-142.49
18220.0,-85.66
18230.0,-21.88
18239.0,-15.0
18249.0,-17.76
18259.0,-8.35
18270.0,-29.28
18279.0,-76.32
18289.0,-81.85
18299.0,-36.29
18310.0,10.5
18319.0,40.87
18329.0,37.08
18339.0,-9.47
18350.0,-45.95
18360.0,-32.27
18369.0,-1.2
18379.0,2.15
18390.0,-7.74
18400.0,-2.44
18409.0,-23.08
18419.0,-81.55
18429.0,-95.14
18440.0,-31.52
18449.0,29.63
18459.0,22.36
18469.0,-2.97
18480.0,16.54
18490.0,35.01
18499.0,24.67
18509.0,19.17
18520.0,0.49
18530.0,-47.71
18539.0,-66.95
18549.0,-14.88
18560.0,42.17
18570.0,33.25
18579.0,9.48
18589.0,26.15
18599.0,45.19
18610.0,23.16
18619.0,-26.57
18629.0,-38.86
18639.0,-2.36
18650.0,6.24
18660.0,-28.68
18669.0,-51.7
18679.0,-40.73
18690.0,-24.78
18700.0,-21.71
18709.0,0.33
18719.0,26.57
18729.0,5.27
18740.0,-23.35
18749.0,9.53
18759.0,68.65
18769.0,60.98
18780.0,-2.64
18789.0,-34.47
18799.0,-43.89
18809.0,-59.38
18820.0,-38.85
18830.0,12.24
18839.0,49.18
18849.0,51.0
18860.0,30.63
18870.0,25.78
18879.0,38.97
18889.0,56.31
18899.0,71.55
18910.0,84.48
18919.0,91.0
18929.0,44.06
18939.0,-27.87
18950.0,-19.34
18959.0,33.82
18969.0,27.27
18979.0,-22.66
18990.0,-44.8
19000.0,-16.09
19009.0,45.51
19019.0,110.93
19030.0,141.5
19040.0,127.63
19049.0,89.99
19059.0,35.22
19069.0,-12.36
19080.0,-54.12
19089.0,-98.79
19099.0,-76.75
19109.0,9.11
19120.0,46.33
19130.0,9.39
19139.0,-13.16
19149.0,28.38
19160.0,53.29
19170.0,10.84
19179.0,-22.01
19189.0,-8.76
19200.0,13.86
19210.0,17.19
19219.0,16.55
19229.0,48.84
19239.0,64.73
19250.0,17.37
19259.0,-27.31
19269.0,-16.77
19279.0,35.89
19290.0,67.24
19300.0,27.48
19309.0,-21.76
19319.0,-27.76
19330.0,-18.35
19340.0,-10.97
19349.0,-11.96
19359.0,-17.65
19369.0,-17.97
19380.0,-27.66
19389.0,-53.41
19399.0,-54.81
19409.0,5.8
19420.0,53.83
19429.0,22.98
19439.0,5.75
19449.0,53.76
19460.0,98.42
19470.0,115.89
19479.0,121.24
19489.0,123.18
19500.0,131.32
19510.0,128.48
19519.0,103.94
19529.0,86.79
19539.0,90.88
19550.0,61.28
19559.0,-45.67
19569.0,-155.89
19579.0,-196.42
19590.0,-191.62
19599.0,-165.48
19609.0,-136.16
19619.0,-138.38
19630.0,-166.47
19640.0,-167.73
19649.0,-135.4
19659.0,-123.3
19670.0,-111.95
19680.0,-76.62
19689.0,-82.68
19699.0,-123.38
19709.0,-125.96
19720.0,-92.59
19729.0,-62.2
19739.0,-64.07
19749.0,-86.81
19760.0,-74.51
19770.0,-16.36
19779.0,21.22
19789.0,10.02
19800.0,10.74
19810.0,14.45
19819.0,-30.2
19829.0,-56.65
19840.0,-30.65
19850.0,-13.4
19859.0,-2.84
19869.0,26.49
19879.0,42.69
19890.0,19.32
19899.0,-1.93
19909.0,23.6
19919.0,68.74
19930.0,79.72
19940.0,16.79
19949.0,-62.12
19959.0,-19.59
19970.0,84.26
19980.0,78.13
19989.0,32.51
19999.0,83.3
20009.0,164.39
20020.0,179.89
20029.0,150.07
20039.0,112.96
20049.0,75.58
20060.0,47.83
20069.0,14.2
20079.0,-30.46
20089.0,-37.0
20100.0,-11.41
20110.0,-10.59
20119.0,-24.7
20129.0,-18.34
20140.0,7.35
20150.0,27.72
20159.0,22.72
20169.0,24.03
20179.0,53.44
20190.0,69.16
20199.0,42.29
20209.0,-8.31
20219.0,-33.49
20230.0,-8.84
20240.0,14.69
20249.0,-17.93
20259.0,-78.24
20270.0,-80.85
20280.0,-21.29
20289.0,14.25
20299.0,19.71
20310.0,45.91
20320.0,83.98
20329.0,88.51
20339.0,39.12
20349.0,-8.75
20360.0,-4.21
20369.0,17.86
20379.0,11.31
20389.0,-14.68
20400.0,-6.35
20410.0,21.8
20419.0,16.14
20429.0,21.88
20440.0,36.12
20450.0,-5.01
20459.0,-51.28
20469.0,-65.29
20480.0,-93.54
20490.0,-142.88
20499.0,-176.56
20509.0,-167.33
20519.0,-126.74
20530.0,-89.44
20539.0,-69.91
20549.0,-51.4
20559.0,-13.4
20570.0,24.43
20580.0,27.5
20589.0,6.38
20599.0,1.27
20610.0,31.02
20620.0,61.3
20629.0,58.33
20639.0,49.27
20649.0,45.02
20660.0,36.42
20669.0,56.17
20679.0,100.53
20689.0,115.44
20700.0,90.69
20709.0,70.46
20719.0,68.73
20729.0,53.86
20740.0,41.28
20750.0,52.35
20759.0,52.53
20769.0,42.19
20780.0,55.5
20790.0,94.25
20799.0,111.64
20809.0,69.23
20819.0,39.65
20830.0,84.83
20839.0,129.6
20849.0,89.62
20859.0,-8.29
20870.0,-39.53
20879.0,32.83
20889.0,77.45
20899.0,44.61
20910.0,21.85
20920.0,27.21
20929.0,14.78
20939.0,-4.78
20950.0,8.77
20960.0,22.53
20969.0,0.86
20979.0,-2.6
20989.0,20.51
21000.0,21.35
21009.0,4.46
21019.0,-21.33
21029.0,-52.55
21040.0,-56.41
21050.0,-29.42
21059.0,-23.62
21069.0,-56.53
21080.0,-68.54
21090.0,-53.89
21099.0,-59.16
21109.0,-55.03
21120.0,-28.83
21130.0,-28.92
21139.0,-51.86
21149.0,-61.33
21159.0,-51.6
21170.0,-44.38
21179.0,-58.17
21189.0,-88.03
21199.0,-104.33
21210.0,-79.52
21220.0,-40.62
21229.0,-28.76
21239.0,-35.22
21250.0,-41.94
21260.0,-38.02
21269.0,-11.38
21279.0,6.39
21289.0,-20.02
21300.0,-47.92
21309.0,-32.4
21319.0,-18.32
21329.0,-43.59
21340.0,-61.77
21349.0,-47.9
21359.0,-34.98
21369.0,-33.69
21380.0,-38.78
21390.0,-50.22
21399.0,-51.11
21409.0,-30.67
21420.0,-13.2
21430.0,-22.94
21439.0,-41.56
21449.0,-50.16
21459.0,-50.76
21470.0,-30.04
21479.0,-6.79
21489.0,-25.98
21499.0,-58.68
21510.0,-49.2
21519.0,-7.21
21529.0,24.53
21539.0,26.5
21550.0,23.31
21560.0,33.49
21569.0,33.27
21579.0,22.37
21590.0,25.2
21600.0,39.8
21609.0,41.4
21619.0,10.03
21629.0,-32.12
21640.0,-39.71
21649.0,-14.11
21659.0,-8.31
21669.0,-41.48
21680.0,-60.04
21690.0,-30.94
21699.0,11.1
21709.0,36.62
21720.0,51.63
21730.0,42.55
21739.0,-21.99
21749.0,-85.42
21760.0,-49.54
21770.0,40.67
21779.0,78.48
21789.0,66.28
21799.0,38.55
21810.0,-1.53
21819.0,-8.01
21829.0,71.5
21839.0,172.78
21850.0,190.47
21860.0,152.3
21869.0,162.17
21879.0,209.7
21890.0,206.84
21900.0,163.57
21909.0,139.94
21919.0,124.42
21929.0,97.22
21940.0,66.37
21949.0,11.7
21959.0,-70.61
21969.0,-126.16
21980.0,-130.94
21989.0,-136.72
21999.0,-169.27
22009.0,-182.71
22020.0,-163.11
22030.0,-144.57
22039.0,-143.2
22049.0,-155.87
22060.0,-166.69
22070.0,-159.79
22079.0,-136.08
22089.0,-101.66
22099.0,-73.38
22110.0,-65.33
22119.0,-69.51
22129.0,-75.01
22139.0,-62.55
22150.0,-27.67
22159.0,-1.75
22169.0,9.88
22179.0,13.53
22190.0,4.74
22200.0,7.34
22209.0,23.06
22219.0,24.79
22230.0,20.74
22240.0,29.69
22249.0,49.11
22259.0,52.49
22269.0,25.29
22280.0,21.47
22289.0,62.46
22299.0,77.36
22309.0,53.01
22320.0,35.5
22330.0,16.22
22339.0,-4.6
22349.0,10.89
22360.0,39.83
22370.0,40.68
22379.0,40.77
22389.0,58.89
22400.0,60.82
22410.0,38.46
22419.0,32.18
22429.0,61.29
22439.0,79.68
22450.0,60.5
22459.0,48.45
22469.0,54.25
22479.0,42.25
22490.0,22.85
22500.0,22.51
22509.0,36.73
22519.0,54.46
22530.0,73.57
22540.0,92.38
22549.0,91.04
22559.0,37.77
22569.0,-44.3
22580.0,-46.13
22589.0,64.46
22599.0,132.84
22609.0,66.69
22620.0,-4.01
22629.0,30.99
22639.0,96.28
22649.0,86.17
22660.0,29.94
22670.0,5.67
22679.0,6.56
22689.0,3.36
22700.0,12.34
22710.0,34.15
22719.0,29.26
22729.0,-11.77
22739.0,-38.31
22750.0,-11.94
22759.0,41.08
22769.0,59.96
22779.0,21.63
22790.0,-12.9
22799.0,9.99
22809.0,44.07
22819.0,24.58
22830.0,-21.41
22840.0,-19.73
22849.0,11.08
22859.0,-3.0
22870.0,-52.72
22880.0,-93.9
22889.0,-112.01
22899.0,-91.02
22909.0,-50.55
22920.0,-42.95
22929.0,-72.04
22939.0,-89.61
22949.0,-68.48
22960.0,-40.17
22970.0,-34.43
22979.0,-40.69
22989.0,-45.43
23000.0,-53.1
23010.0,-67.54
23019.0,-66.76
23029.0,-39.27
23040.0,-19.92
23050.0,-34.79
23059.0,-54.05
23069.0,-40.87
23079.0,-11.93
23090.0,-5.49
23099.0,-22.1
23109.0,-43.27
23119.0,-52.14
23130.0,-34.22
23140.0,0.06
23149.0,24.54
23159.0,19.54
23170.0,-24.5
23180.0,-87.18
23189.0,-123.44
23199.0,-110.72
23209.0,-72.94
23220.0,-50.92
23229.0,-52.26
23239.0,-66.53
23249.0,-70.18
23260.0,-39.04
23269.0,-1.6
23279.0,57.2
23289.0,176.85
23300.0,233.33
23310.0,122.92
23319.0,-23.2
23329.0,-68.07
23340.0,-73.61
23350.0,-136.22
23359.0,-193.2
23369.0,-151.32
23379.0,-77.24
23390.0,-62.86
23399.0,-50.16
23409.0,27.0
23419.0,99.33
23430.0,103.37
23439.0,71.16
23449.0,39.41
23459.0,41.54
23470.0,101.9
23480.0,167.86
23489.0,166.88
23499.0,109.88
23510.0,76.79
23520.0,99.04
23529.0,117.57
23539.0,98.44
23549.0,78.14
23560.0,82.23
23569.0,89.02
23579.0,84.01
23589.0,84.54
23600.0,80.43
23610.0,46.96
23619.0,2.23
23629.0,-28.99
23640.0,-41.38
23650.0,-33.39
23659.0,-7.14
23669.0,26.47
23680.0,39.6
23690.0,23.31
23699.0,11.33
23709.0,17.95
23719.0,14.77
23730.0,11.82
23739.0,36.85
23749.0,34.29
23759.0,-26.47
23770.0,-66.35
23780.0,-52.35
23789.0,-22.01
23799.0,4.44
23810.0,16.44
23820.0,26.92
23829.0,28.51
23839.0,-8.29
23849.0,-29.88
23860.0,3.71
23869.0,25.24
23879.0,-3.66
23889.0,-33.1
23900.0,-29.43
23909.0,-31.54
23919.0,-43.21
23929.0,-19.11
23940.0,-5.21
23950.0,-40.61
23959.0,-41.25
23969.0,8.63
23980.0,28.35
23990.0,11.25
23999.0,-1.59
24009.0,-14.44
24019.0,-47.9
24030.0,-69.72
24039.0,-47.38
24049.0,-23.36
24059.0,-26.81
24070.0,-31.86
24079.0,-24.8
24089.0,-14.69
24099.0,-17.11
24110.0,-31.27
24120.0,-33.88
24129.0,-10.64
24139.0,5.85
24150.0,-29.42
24160.0,-64.38
24169.0,-36.03
24179.0,2.3
24189.0,-1.11
24200.0,-23.14
24209.0,-22.13
24219.0,-11.84
24229.0,-35.97
24240.0,-47.73
24250.0,-10.02
24259.0,17.43
24269.0,6.04
24280.0,-38.83
24290.0,-94.19
24299.0,-90.6
24309.0,-25.7
24320.0,22.19
24330.0,23.41
24339.0,-7.95
24349.0,-74.92
24359.0,-118.87
24370.0,-41.23
24379.0,73.07
24389.0,64.59
24399.0,-6.69
24410.0,-24.68
24420.0,-8.04
24429.0,5.95
24439.0,9.62
24450.0,15.32
24460.0,28.69
24469.0,15.04
24479.0,-21.09
24489.0,-32.11
24500.0,-2.36
24509.0,31.42
24519.0,21.45
24529.0,-17.84
24540.0,-31.31
24549.0,4.2
24559.0,58.07
24569.0,76.85
24580.0,75.14
24590.0,105.72
24599.0,140.97
24609.0,139.79
24620.0,130.22
24630.0,136.52
24639.0,126.21
24649.0,76.74
24659.0,12.28
24670.0,-56.57
24679.0,-105.11
24689.0,-101.11
24699.0,-76.18
24710.0,-64.72
24719.0,-74.1
24729.0,-94.18
24739.0,-106.67
24750.0,-106.22
24760.0,-66.19
24769.0,-12.46
24779.0,-23.91
24790.0,-74.2
24800.0,-104.21
24809.0,-107.03
24819.0,-66.58
24829.0,-7.19
24840.0,9.86
24849.0,-23.1
24859.0,-44.19
24869.0,-5.91
24880.0,45.87
24890.0,69.07
24899.0,79.26
24909.0,75.46
24920.0,42.96
24930.0,-15.37
24939.0,-43.04
24949.0,-8.31
24960.0,23.83
24970.0,39.53
24979.0,67.44
24989.0,95.31
24999.0,123.7
25010.0,136.65
25019.0,113.24
25029.0,60.98
25039.0,14.03
25050.0,2.34
25060.0,-17.68
25069.0,-40.5
25079.0,-4.51
25090.0,38.69
25100.0,37.12
25109.0,19.82
25119.0,7.05
25129.0,-0.34
25140.0,-10.36
25149.0,15.89
25159.0,88.22
25169.0,90.77
25180.0,-25.48
25189.0,-127.0
25199.0,-84.56
25209.0,38.67
25220.0,84.58
25230.0,48.96
25239.0,22.08
25249.0,19.69
25260.0,30.13
25270.0,46.6
25279.0,59.42
25289.0,48.81
25299.0,3.18
25310.0,-35.14
25319.0,-49.98
25329.0,-54.21
25339.0,-42.31
25350.0,-37.08
25359.0,-42.47
25369.0,-30.38
25379.0,5.43
25390.0,37.07
25400.0,26.05
25409.0,13.26
25419.0,39.96
25430.0,44.53
25440.0,9.4
25449.0,-14.88
25459.0,-15.73
25469.0,-9.84
25480.0,-16.96
25489.0,-35.05
25499.0,-50.87
25509.0,-59.49
25520.0,-61.27
25530.0,-61.24
25539.0,-34.97
25549.0,18.61
25560.0,35.99
25570.0,-9.73
25579.0,-88.31
25589.0,-164.23
25600.0,-206.54
25610.0,-196.38
25619.0,-145.21
25629.0,-102.9
25639.0,-88.76
25650.0,-67.0
25659.0,-21.94
25669.0,21.93
25679.0,28.38
25690.0,11.25
25700.0,15.96
25709.0,20.19
25719.0,8.69
25730.0,19.72
25740.0,50.12
25749.0,86.38
25759.0,125.84
25769.0,146.13
25780.0,140.22
25789.0,110.1
25799.0,78.69
25809.0,88.24
25820.0,117.84
25829.0,112.05
25839.0,70.36
25849.0,47.98
25860.0,69.64
25870.0,90.01
25879.0,88.57
25889.0,80.77
25900.0,64.11
25910.0,37.78
25919.0,10.89
25929.0,12.41
25939.0,50.73
25950.0,71.69
25959.0,40.64
25969.0,-10.79
25979.0,-28.81
25990.0,-6.26
25999.0,19.16
26009.0,37.66
26019.0,43.6
26030.0,34.78
26040.0,28.02
26049.0,-21.9
26059.0,-116.61
26070.0,-135.4
26080.0,-46.83
26089.0,36.4
26099.0,16.68
26109.0,-66.8
26120.0,-86.63
26129.0,-29.61
26139.0,23.4
26149.0,30.46
26160.0,-12.96
26170.0,-61.3
26179.0,-77.16
26189.0,-79.42
26200.0,-80.2
26210.0,-75.6
26219.0,-51.92
26229.0,-26.29
26240.0,-44.93
26250.0,-76.93
26259.0,-71.01
26269.0,-44.47
26279.0,-24.42
26290.0,-8.66
26299.0,14.48
26309.0,16.91
26319.0,-9.39
26330.0,-11.53
26340.0,-0.48
26349.0,-15.1
26359.0,-49.49
26370.0,-94.13
26380.0,-104.02
26389.0,-69.77
26399.0,-49.38
26409.0,-42.05
26420.0,-16.89
26429.0,13.3
26439.0,15.31
26449.0,-4.0
26460.0,-1.98
26469.0,8.66
26479.0,-5.32
26489.0,-22.01
26500.0,-12.27
26510.0,10.42
26519.0,14.2
26529.0,1.27
26540.0,-10.3
26550.0,-16.45
26559.0,-8.36
26569.0,3.04
26579.0,4.45
26590.0,12.06
26599.0,17.97
26609.0,11.9
26619.0,5.93
26630.0,4.91
26639.0,24.14
26649.0,54.2
26659.0,49.06
26670.0,2.45
26680.0,-34.68
26689.0,-21.27
26699.0,4.7
26710.0,-1.74
26720.0,-9.87
26729.0,-8.16
26739.0,-18.94
26749.0,-25.2
26760.0,-9.05
26769.0,22.34
26779.0,42.0
26789.0,34.69
26800.0,31.99
26810.0,47.05
26819.0,54.35
26829.0,39.57
26840.0,11.5
26850.0,0.74
26859.0,23.49
26869.0,39.13
26880.0,9.61
26890.0,-15.75
26899.0,18.52
26909.0,54.05
26919.0,36.92
26930.0,30.86
26939.0,70.01
26949.0,66.25
26959.0,-38.42
26970.0,-128.62
26980.0,-60.29
26989.0,114.74
26999.0,242.46
27010.0,276.16
27020.0,272.9
27029.0,262.38
27039.0,213.17
27049.0,143.98
27060.0,117.42
27069.0,116.7
27079.0,92.61
27089.0,54.56
27100.0,19.99
27109.0,-36.91
27119.0,-130.53
27129.0,-208.25
27140.0,-232.44
27150.0,-234.2
27159.0,-222.8
27169.0,-189.68
27180.0,-172.99
27190.0,-183.42
27199.0,-180.18
27209.0,-156.97
27219.0,-139.2
27230.0,-129.73
27239.0,-112.98
27249.0,-85.99
27259.0,-76.11
27270.0,-105.24
27279.0,-130.36
27289.0,-105.98
27299.0,-66.63
27310.0,-22.72
27320.0,62.95
27329.0,159.07
27339.0,204.12
27350.0,189.15
27360.0,145.94
27369.0,102.63
27379.0,55.45
27389.0,6.62
27400.0,-28.82
27409.0,-46.88
27419.0,-46.73
27429.0,-50.54
27440.0,-75.68
27450.0,-94.16
27459.0,-86.6
27469.0,-69.16
27480.0,-67.06
27490.0,-77.6
27499.0,-72.86
27509.0,-65.43
27520.0,-72.39
27530.0,-60.95
27539.0,-32.66
27549.0,-27.4
27559.0,-40.25
27570.0,-45.79
27579.0,-33.96
27589.0,-15.62
27599.0,-20.82
27610.0,-32.16
27620.0,1.75
27629.0,51.67
27639.0,47.07
27650.0,9.15
27660.0,6.06
27669.0,24.31
27679.0,9.21
27689.0,-11.7
27700.0,20.53
27709.0,71.73
27719.0,75.8
27729.0,49.29
27740.0,41.05
27749.0,59.46
27759.0,73.2
27769.0,56.85
27780.0,58.04
27790.0,91.27
27799.0,55.2
27809.0,-36.8
27820.0,-26.0
27830.0,81.01
27839.0,130.4
27849.0,96.12
27859.0,65.32
27870.0,69.62
27879.0,78.12
27889.0,72.46
27899.0,55.13
27910.0,38.21
27919.0,38.24
27929.0,50.54
27939.0,50.47
27950.0,23.95
27960.0,1.88
27969.0,29.7
27979.0,76.99
27990.0,78.14
28000.0,48.11
28009.0,39.17
28019.0,40.78
28029.0,30.52
28040.0,44.09
28049.0,80.84
28059.0,73.21
28069.0,33.25
28080.0,23.95
28090.0,20.14
28099.0,-9.02
28109.0,-26.74
28120.0,-14.31
28130.0,3.83
28139.0,5.5
28149.0,-16.11
28160.0,-41.03
28170.0,-26.61
28179.0,23.25
28189.0,43.14
28199.0,10.47
28210.0,-25.44
28219.0,-27.39
28229.0,-15.13
28239.0,-9.76
28250.0,1.81
28260.0,13.3
28269.0,4.73
28279.0,-12.31
28290.0,-20.8
28300.0,-18.37
28309.0,-14.92
28319.0,-31.15
28329.0,-76.66
28340.0,-128.27
28349.0,-145.26
28359.0,-127.26
28369.0,-98.84
28380.0,-40.59
28389.0,26.77
28399.0,15.88
28409.0,-39.86
28420.0,-36.0
28430.0,-9.42
28439.0,-28.14
28449.0,-46.58
28460.0,-39.8
28470.0,-38.01
28479.0,-23.96
28489.0,3.85
28499.0,5.5
28510.0,-2.41
28519.0,13.48
28529.0,36.41
28539.0,47.76
28550.0,45.28
28559.0,33.26
28569.0,28.58
28579.0,43.84
28590.0,80.69
28600.0,115.7
28609.0,89.4
28619.0,4.86
28630.0,-23.8
28640.0,44.47
28649.0,89.75
28659.0,47.04
28669.0,4.16
28680.0,13.56
28689.0,23.55
28699.0,6.98
28709.0,-2.68
28720.0,1.17
28730.0,-19.99
28739.0,-51.35
28749.0,-32.64
28760.0,14.72
28770.0,14.82
28779.0,-29.89
28789.0,-53.86
28800.0,-42.88
28810.0,-26.91
28819.0,-5.97
28829.0,21.39
28839.0,21.78
28850.0,-12.68
28859.0,-39.32
28869.0,-35.14
28879.0,-19.68
28890.0,-18.81
28900.0,-42.22
28909.0,-66.28
28919.0,-71.52
28930.0,-80.09
28940.0,-96.82
28949.0,-88.87
28959.0,-59.64
28969.0,-37.94
28980.0,-17.01
28989.0,1.82
28999.0,-4.06
29009.0,-23.1
29020.0,-39.26
29029.0,-53.64
29039.0,-46.14
29049.0,-16.45
29060.0,-4.67
29070.0,-11.3
29079.0,-0.75
29089.0,17.33
29100.0,4.2
29110.0,-26.66
29119.0,-26.78
29129.0,-3.22
29139.0,-4.66
29150.0,-28.8
29159.0,-33.02
29169.0,-13.75
29179.0,-3.57
29190.0,-2.38
29199.0,23.64
29209.0,54.46
29219.0,25.45
29230.0,-39.53
29240.0,-42.88
29249.0,3.04
29259.0,-9.73
29270.0,-59.23
29280.0,-39.53
29289.0,14.13
29299.0,23.61
29309.0,10.02
29320.0,-2.36
29329.0,-11.99
29339.0,1.52
29349.0,32.35
29360.0,41.6
29370.0,19.98
29379.0,-6.54
29389.0,-19.13
29400.0,-16.03
29410.0,-6.68
29419.0,1.04
29429.0,21.28
29440.0,48.77
29450.0,59.71
29459.0,82.95
29469.0,120.15
29479.0,95.16
29490.0,-6.23
29499.0,-86.85
29509.0,-54.56
29519.0,35.23
29530.0,54.88
29540.0,26.01
29549.0,30.69
29559.0,31.5
29570.0,-5.84
29580.0,-20.53
29589.0,11.12
29599.0,38.59
29609.0,48.74
29620.0,58.25
29629.0,55.89
29639.0,37.01
29649.0,0.4
29660.0,-42.28
29669.0,-49.49
29679.0,-25.58
29689.0,12.52
29700.0,57.53
29710.0,50.52
29719.0,-1.14
29729.0,-8.84
29740.0,21.52
29750.0,14.89
29759.0,-34.42
29769.0,-62.84
29779.0,-38.62
29790.0,-3.48
29799.0,21.27
29809.0,63.01
29819.0,104.71
29830.0,108.12
29839.0,93.28
29849.0,101.26
29859.0,130.91
29870.0,129.43
29880.0,74.26
29889.0,31.59
29899.0,36.9
29910.0,32.1
29920.0,-9.29
29929.0,-55.34
29939.0,-102.5
29949.0,-130.72
29960.0,-108.23
29969.0,-90.27
29979.0,-124.48
29989.0,-152.05
30000.0,-119.41
30010.0,-77.6
30019.0,-88.75
30029.0,-109.43
30040.0,-83.92
30050.0,-47.19
30059.0,-34.57
30069.0,-41.56
30080.0,-48.57
30090.0,-31.98
30099.0,-14.3
30109.0,-14.77
30119.0,-8.88
30130.0,-3.19
30139.0,-21.51
30149.0,-56.02
30159.0,-78.77
30170.0,-59.06
30180.0,0.42
30189.0,58.21
30199.0,85.0
30210.0,62.22
30220.0,-15.9
30229.0,-68.54
30239.0,-12.63
30249.0,63.11
30260.0,50.68
30269.0,3.75
30279.0,-22.55
30289.0,-40.85
30300.0,-33.71
30309.0,17.93
30319.0,81.67
30329.0,84.44
30340.0,7.54
30350.0,-63.76
30359.0,-48.61
30369.0,42.22
30380.0,101.42
30390.0,63.93
30399.0,24.42
30409.0,41.64
30419.0,41.16
30430.0,3.72
30439.0,-0.13
30449.0,41.62
30459.0,49.47
30470.0,13.67
30479.0,20.54
30489.0,62.88
30499.0,66.88
30510.0,39.46
30520.0,21.89
30529.0,7.08
30539.0,-28.14
30550.0,-28.94
30560.0,49.46
30569.0,112.02
30579.0,94.03
30589.0,52.89
30600.0,33.18
30609.0,36.64
30619.0,42.17
30629.0,32.19
30640.0,10.1
30650.0,-16.04
30659.0,-28.35
30669.0,-33.7
30680.0,-44.11
30690.0,-36.16
30699.0,-2.38
30709.0,33.64
30720.0,35.94
30730.0,16.91
30739.0,29.85
30749.0,40.9
30759.0,20.01
30770.0,12.79
30779.0,11.51
30789.0,-4.27
30799.0,-23.13
30810.0,-38.09
30820.0,-31.21
30829.0,-6.67
30839.0,12.0
30850.0,1.67
30860.0,-23.28
30869.0,-6.9
30879.0,23.34
30889.0,4.61
30900.0,-38.02
30909.0,-60.47
30919.0,-53.66
30929.0,-35.7
30940.0,-22.52
30949.0,-11.18
30959.0,10.56
30969.0,62.55
30980.0,94.75
30990.0,50.29
30999.0,-1.05
31009.0,2.03
31020.0,31.2
31030.0,46.85
31039.0,30.89
31049.0,2.61
31059.0,-18.97
31070.0,-26.47
31079.0,-17.29
31089.0,-10.24
31099.0,4.42
31110.0,41.63
31119.0,64.59
31129.0,14.15
31139.0,-90.9
31150.0,-103.39
31160.0,5.32
31169.0,56.87
31179.0,-5.85
31190.0,-65.52
31200.0,-64.8
31209.0,-44.68
31219.0,-46.41
31229.0,-72.38
31240.0,-113.53
31249.0,-143.18
31259.0,-143.48
31269.0,-138.4
31280.0,-118.27
31290.0,-73.45
31299.0,-57.69
31309.0,-84.38
31320.0,-93.35
31330.0,-54.94
31339.0,-12.52
31349.0,13.46
31360.0,54.34
31370.0,83.06
31379.0,69.41
31389.0,64.4
31399.0,79.09
31410.0,80.06
31419.0,70.32
31429.0,44.21
31439.0,7.2
31450.0,-6.32
31460.0,0.39
31469.0,5.06
31479.0,18.84
31490.0,54.02
31500.0,79.94
31509.0,91.32
31519.0,121.51
31529.0,138.75
31540.0,119.1
31549.0,102.22
31559.0,85.43
31569.0,54.24
31580.0,25.71
31589.0,14.12
31599.0,17.59
31609.0,19.08
31620.0,26.73
31630.0,29.46
31639.0,-0.17
31649.0,-15.62
31660.0,-2.59
31670.0,-6.41
31679.0,-22.75
31689.0,-31.95
31699.0,-23.97
31710.0,-16.14
31719.0,-31.54
31729.0,-34.36
31739.0,-17.63
31750.0,-7.19
31759.0,4.5
31769.0,3.21
31779.0,-21.57
31790.0,-42.61
31800.0,-43.35
31809.0,-29.36
31819.0,-21.37
31830.0,-26.26
31840.0,-33.94
31849.0,-44.36
31859.0,-59.13
31869.0,-75.3
31880.0,-66.32
31889.0,-31.58
31899.0,-34.2
31909.0,-64.47
31920.0,-50.06
31930.0,-4.62
31939.0,17.11
31949.0,19.42
31960.0,46.09
31970.0,65.0
31979.0,-13.66
31989.0,-128.35
32000.0,-106.18
32010.0,32.93
32019.0,89.49
32029.0,32.8
32039.0,-1.96
32050.0,-5.87
32059.0,-21.29
32069.0,-25.75
32079.0,-38.5
32090.0,-58.41
32100.0,-51.37
32109.0,-38.28
32119.0,-28.55
32130.0,-22.27
32140.0,-34.94
32149.0,-49.48
32159.0,-34.87
32169.0,9.49
32180.0,21.24
32189.0,-25.19
32199.0,-40.29
32209.0,7.59
32220.0,39.65
32229.0,26.08
32239.0,10.8
32249.0,16.5
32260.0,16.24
32270.0,9.65
32279.0,29.08
32289.0,44.94
32300.0,13.97
32310.0,-27.48
32319.0,-26.82
32329.0,-7.61
32339.0,-23.17
32350.0,-49.91
32359.0,-37.8
32369.0,-0.85
32379.0,30.13
32390.0,39.15
32399.0,31.95
32409.0,27.45
32419.0,18.82
32430.0,18.91
32440.0,36.3
32449.0,40.69
32459.0,50.0
32470.0,69.16
32480.0,38.34
32489.0,-18.84
32499.0,-14.26
32509.0,28.86
32520.0,29.27
32529.0,8.92
32539.0,11.73
32549.0,10.18
32560.0,3.87
32570.0,6.62
32579.0,8.82
32589.0,27.64
32600.0,45.16
32610.0,36.02
32619.0,29.53
32629.0,16.11
32640.0,-12.86
32650.0,-14.17
32659.0,-1.79
32669.0,-7.28
32679.0,9.95
32690.0,61.45
32699.0,77.73
32709.0,42.25
32719.0,17.64
32730.0,13.38
32740.0,8.41
32749.0,22.03
32759.0,59.61
32770.0,103.22
32780.0,128.47
32789.0,129.78
32799.0,139.36
32809.0,155.18
32820.0,153.41
32829.0,155.3
32839.0,175.32
32849.0,178.85
32860.0,124.68
32869.0,14.72
32879.0,-80.08
32889.0,-81.62
32900.0,-44.27
32910.0,-96.37
32919.0,-206.13
32929.0,-241.51
32940.0,-208.3
32950.0,-189.78
32959.0,-198.21
32969.0,-200.78
32979.0,-177.62
32990.0,-152.76
32999.0,-146.3
33009.0,-127.29
33019.0,-96.41
33030.0,-93.51
33039.0,-108.03
33049.0,-99.7
33059.0,-71.35
33070.0,-57.28
33080.0,-58.6
33089.0,-45.07
33099.0,-16.74
33110.0,-1.1
33120.0,-2.28
33129.0,-7.35
33139.0,-9.38
33149.0,-6.9
33160.0,-10.98
33169.0,-23.23
33179.0,-31.88
33189.0,-35.45
33200.0,-19.48
33210.0,31.51
33219.0,61.44
33229.0,16.78
33240.0,-26.13
33250.0,9.35
33259.0,49.54
33269.0,23.84
33280.0,-3.13
33290.0,17.35
33299.0,39.79
33309.0,44.67
33319.0,45.23
33330.0,28.06
33339.0,8.44
33349.0,19.49
33359.0,45.73
33370.0,60.66
33380.0,58.77
33389.0,56.36
33399.0,68.59
33410.0,74.92
33420.0,63.48
33429.0,47.78
33439.0,39.64
33449.0,49.52
33460.0,67.51
33469.0,64.53
33479.0,43.39
33489.0,33.51
33500.0,37.63
33509.0,39.75
33519.0,40.88
33529.0,42.97
33540.0,19.24
33550.0,-20.11
33559.0,2.4
33569.0,71.07
33580.0,67.0
33590.0,-0.18
33599.0,-24.06
33609.0,-7.56
33619.0,-0.03
33630.0,0.18
33639.0,-12.53
33649.0,-37.88
33659.0,-28.2
33670.0,21.97
33679.0,43.26
33689.0,19.6
33699.0,13.48
33710.0,24.24
33720.0,-15.68
33729.0,-72.39
33739.0,-47.39
33750.0,35.31
33760.0,80.44
33769.0,57.73
33779.0,1.65
33789.0,-27.65
33800.0,-11.44
33809.0,-2.49
33819.0,-26.19
33829.0,-41.46
33840.0,-42.0
33850.0,-61.88
33859.0,-79.74
33869.0,-58.66
33880.0,-24.93
33890.0,-16.45
33899.0,-14.57
33909.0,15.96
33920.0,47.56
33930.0,40.76
33939.0,25.91
33949.0,29.01
33959.0,30.55
33970.0,24.81
33979.0,16.13
33989.0,0.7
33999.0,-16.39
34010.0,-47.37
34020.0,-105.59
34029.0,-141.78
34039.0,-122.31
34050.0,-111.52
34060.0,-136.97
34069.0,-127.52
34079.0,-71.27
34089.0,-23.99
34100.0,9.1
34109.0,45.76
34119.0,74.69
34129.0,80.51
34140.0,71.35
34149.0,64.49
34159.0,63.51
34169.0,68.53
34180.0,81.28
34190.0,89.21
34199.0,80.76
34209.0,63.21
34220.0,55.38
34230.0,68.11
34239.0,78.64
34249.0,67.45
34259.0,60.77
34270.0,68.71
34279.0,66.22
34289.0,57.63
34299.0,59.3
34310.0,59.01
34319.0,52.15
34329.0,49.04
34339.0,41.31
34350.0,23.41
34360.0,15.39
34369.0,20.5
34379.0,12.87
34390.0,-14.54
34400.0,-25.19
34409.0,-6.39
34419.0,-13.77
34429.0,-50.15
34440.0,-40.72
34449.0,11.83
34459.0,33.97
34469.0,9.9
34480.0,-22.18
34490.0,-41.42
34499.0,-35.3
34509.0,1.99
34520.0,26.82
34530.0,2.86
34539.0,-31.02
34549.0,-28.47
34560.0,-5.34
34570.0,-13.67
34579.0,-48.3
34589.0,-36.79
34599.0,1.44
34610.0,-44.38
34619.0,-134.63
34629.0,-120.17
34639.0,-29.83
34650.0,7.3
34660.0,-2.29
34669.0,-6.64
34679.0,-30.85
34690.0,-75.45
34700.0,-87.98
34709.0,-65.23
34719.0,-46.0
34729.0,-40.84
34740.0,-37.8
34749.0,-35.94
34759.0,-32.77
34769.0,-18.13
34780.0,-10.07
34789.0,-28.96
34799.0,-57.65
34809.0,-69.74
34820.0,-50.74
34830.0,-9.46
34839.0,11.79
34849.0,-7.5
34860.0,-35.91
34870.0,-54.38
34879.0,-68.07
34889.0,-62.38
34899.0,-38.21
34910.0,-37.76
34919.0,-57.75
34929.0,-49.06
34939.0,-34.93
34950.0,-53.38
34959.0,-48.28
34969.0,3.98
34979.0,40.94
34990.0,55.25
35000.0,92.82
35009.0,162.31
35019.0,219.4
35030.0,210.09
35040.0,173.06
35049.0,187.51
35059.0,206.22
35069.0,158.12
35080.0,100.6
35089.0,87.82
35099.0,60.12
35109.0,-34.05
35120.0,-134.49
35130.0,-182.87
35139.0,-190.19
35149.0,-172.74
35160.0,-162.09
35170.0,-167.97
35179.0,-153.04
35189.0,-117.96
35200.0,-91.72
35210.0,-92.12
35219.0,-127.54
35229.0,-157.27
35239.0,-128.31
35250.0,-72.83
35259.0,-65.34
35269.0,-84.11
35279.0,-56.32
35290.0,-11.25
35300.0,-7.32
35309.0,-16.66
35319.0,-10.84
35330.0,-5.8
35340.0,0.06
35349.0,16.43
35359.0,23.58
35369.0,22.78
35380.0,41.81
35389.0,52.16
35399.0,32.21
35409.0,25.86
35420.0,32.5
35429.0,26.97
35439.0,22.85
35449.0,15.41
35460.0,16.23
35470.0,45.94
35479.0,67.81
35489.0,57.7
35500.0,34.4
35510.0,21.15
35519.0,30.62
35529.0,44.87
35539.0,72.02
35550.0,134.95
35559.0,153.38
35569.0,47.31
35579.0,-51.8
35590.0,19.9
35599.0,131.19
35609.0,92.83
35619.0,12.42
35630.0,28.24
35640.0,77.68
35649.0,98.0
35659.0,107.02
35670.0,108.65
35680.0,76.75
35689.0,16.42
35699.0,-19.0
35709.0,-1.71
35720.0,40.0
35729.0,54.95
35739.0,31.94
35749.0,12.39
35760.0,-3.21
35770.0,-15.41
35779.0,9.97
35789.0,25.4
35800.0,-5.43
35810.0,-13.53
35819.0,28.95
35829.0,70.27
35840.0,70.2
35850.0,46.41
35859.0,43.68
35869.0,57.12
35879.0,32.69
35890.0,-35.76
35899.0,-55.27
35909.0,10.27
35919.0,43.02
35930.0,-8.87
35940.0,-54.08
35949.0,-31.38
35959.0,15.33
35970.0,-2.54
35980.0,-56.07
35989.0,-41.37
35999.0,4.27
36009.0,2.0
36020.0,-27.24
36029.0,-35.75
36039.0,-7.87
36049.0,17.76
36060.0,8.04
36069.0,-23.86
36079.0,-49.5
36089.0,-29.26
36100.0,18.63
36110.0,50.61
36119.0,71.68
36129.0,63.57
36140.0,18.16
36150.0,-29.85
36159.0,-58.03
36169.0,-49.25
36179.0,-22.52
36190.0,-7.79
36199.0,18.28
36209.0,72.55
36219.0,118.78
36230.0,120.45
36239.0,106.54
36249.0,125.34
36259.0,146.04
36270.0,125.15
36280.0,74.04
36289.0,13.27
36299.0,-22.57
36310.0,-20.37
36320.0,-21.57
36329.0,-43.54
36339.0,-59.1
36349.0,-57.71
36360.0,-56.29
36369.0,-67.94
36379.0,-92.62
36389.0,-113.25
36400.0,-113.96
36410.0,-116.73
36419.0,-116.89
36429.0,-83.42
36440.0,-66.25
36450.0,-103.2
36459.0,-139.47
36469.0,-139.12
36480.0,-118.87
36490.0,-92.01
36499.0,-58.65
36509.0,-66.59
36519.0,-138.61
36530.0,-157.74
36539.0,-83.32
36549.0,-42.1
36559.0,-49.13
36570.0,-18.26
36580.0,23.78
36589.0,9.24
36599.0,-37.43
36610.0,-62.07
36620.0,-55.26
36629.0,-16.37
36639.0,19.39
36649.0,-9.83
36660.0,-68.01
36669.0,-82.63
36679.0,-63.75
36689.0,-41.62
36700.0,-16.35
36709.0,19.24
36719.0,43.62
36729.0,36.76
36740.0,32.23
36750.0,40.13
36759.0,43.72
36769.0,53.66
36780.0,58.54
36790.0,47.51
36799.0,22.02
36809.0,-9.67
36819.0,-9.4
36830.0,12.75
36839.0,11.8
36849.0,-5.83
36859.0,-10.01
36870.0,13.18
36879.0,47.07
36889.0,65.16
36899.0,60.6
36910.0,32.39
36920.0,-5.75
36929.0,-17.72
36939.0,16.96
36950.0,57.76
36960.0,50.74
36969.0,14.98
36979.0,-5.5
36989.0,6.73
37000.0,41.59
37009.0,54.38
37019.0,40.34
37029.0,41.41
37040.0,56.81
37050.0,58.58
37059.0,24.78
37069.0,-18.45
37080.0,1.69
37090.0,60.6
37099.0,72.87
37109.0,45.89
37120.0,33.22
37130.0,51.19
37139.0,64.68
37149.0,51.3
37159.0,28.92
37170.0,10.46
37179.0,10.09
37189.0,10.14
37199.0,-6.64
37210.0,0.61
37220.0,29.16
37229.0,48.2
37239.0,64.53
37250.0,75.22
37260.0,79.33
37269.0,64.99
37279.0,31.28
37289.0,12.71
37300.0,-2.13
37309.0,-22.07
37319.0,-24.36
37329.0,-20.35
37340.0,-17.55
37349.0,-11.21
37359.0,6.29
37369.0,34.09
37380.0,34.48
37390.0,14.8
37399.0,21.88
37409.0,33.62
37420.0,-9.41
37430.0,-87.83
37439.0,-99.05
37449.0,-21.02
37459.0,43.92
37470.0,40.84
37479.0,2.98
37489.0,-24.01
37499.0,-26.13
37510.0,-19.26
37519.0,-0.07
37529.0,-0.69
37539.0,-66.97
37550.0,-154.55
37560.0,-221.79
37569.0,-270.55
37579.0,-282.69
37590.0,-254.99
37600.0,-217.32
37609.0,-184.43
37619.0,-145.85
37629.0,-99.35
37640.0,-47.67
37649.0,18.29
37659.0,107.98
37669.0,198.3
37680.0,239.15
37690.0,220.79
37699.0,188.74
37709.0,168.55
37720.0,152.18
37730.0,148.36
37739.0,145.58
37749.0,122.15
37760.0,98.73
37770.0,96.36
37779.0,122.28
37789.0,148.71
37799.0,136.83
37810.0,112.89
37819.0,106.49
37829.0,100.99
37839.0,66.06
37850.0,10.1
37860.0,-8.59
37869.0,-11.67
37879.0,-59.63
37890.0,-97.93
37900.0,-60.5
37909.0,30.05
37919.0,100.36
37929.0,116.91
37940.0,121.01
37949.0,107.65
37959.0,55.17
37969.0,27.6
37980.0,51.37
37989.0,56.56
37999.0,6.01
38009.0,-41.86
38020.0,-36.02
38030.0,-10.33
38039.0,15.05
38049.0,44.79
38060.0,52.26
38070.0,42.12
38079.0,24.39
38089.0,-8.63
38099.0,-35.95
38110.0,-41.42
38119.0,-20.29
38129.0,14.14
38139.0,31.22
38150.0,33.11
38159.0,19.91
38169.0,-22.14
38179.0,-72.97
38190.0,-96.64
38200.0,-88.01
38209.0,-79.95
38219.0,-87.7
38230.0,-90.92
38240.0,-81.93
38249.0,-70.0
38259.0,-55.72
38269.0,-33.52
38280.0,-5.89
38289.0,22.05
38299.0,32.01
38309.0,11.92
38320.0,-13.55
38330.0,-29.48
38339.0,-44.41
38349.0,-60.5
38360.0,-74.54
38370.0,-85.59
38379.0,-95.05
38389.0,-103.75
38400.0,-111.53
38410.0,-118.33
38419.0,-124.66
38429.0,-129.93
38439.0,-133.63
38450.0,-136.03
38459.0,-137.57
38469.0,-138.53
38479.0,-138.6
38490.0,-137.72
38500.0,-136.52
38509.0,-135.16
38519.0,-132.68
38530.0,-129.31
38540.0,-125.84
38549.0,-122.48
38559.0,-118.44
38569.0,-113.3
38580.0,-107.86
38589.0,-103.05
38599.0,-98.31
38609.0,-92.83
38620.0,-86.47
38629.0,-80.09
38639.0,-73.96
38649.0,-67.95
38660.0,-61.47
38670.0,-54.4
38679.0,-47.48
38689.0,-41.32
38700.0,-35.58
38710.0,-29.74
38719.0,-23.5
38729.0,-17.03
38739.0,-10.7
38750.0,-4.57
38759.0,1.28
38769.0,6.86
38779.0,12.56
38790.0,18.42
38799.0,24.21
38809.0,29.35
38819.0,33.72
38830.0,38.65
38840.0,44.04
38849.0,48.54
38859.0,52.15
38870.0,55.76
38880.0,59.87
38889.0,63.91
38899.0,67.21
38909.0,69.83
38920.0,72.52
38929.0,75.38
38939.0,77.99
38949.0,80.17
38960.0,82.14
38970.0,83.91
38979.0,85.25
38989.0,86.56
39000.0,88.25
39010.0,89.84
39019.0,90.62
39029.0,90.55
39040.0,90.63
39050.0,90.75
39059.0,90.8
39069.0,90.85
39079.0,90.38
39090.0,89.57
39099.0,88.99
39109.0,89.08
39119.0,88.64
39130.0,87.34
39140.0,85.84
39149.0,84.32
39159.0,82.71
39170.0,81.06
39180.0,79.45
39189.0,77.37
39199.0,75.04
39209.0,73.08
39220.0,71.05
39229.0,68.53
39239.0,65.78
39249.0,63.8
39260.0,62.15
39269.0,59.88
39279.0,57.07
39289.0,54.51
39300.0,52.05
39310.0,49.26
39319.0,46.23
39329.0,43.39
39340.0,41.25
39350.0,39.1
39359.0,36.08
39369.0,33.21
39379.0,31.06
39390.0,28.8
39399.0,25.68
39409.0,22.42
39419.0,19.66
39430.0,17.26
39439.0,14.91
39449.0,12.6
39459.0,10.03
39470.0,7.65
39480.0,5.58
39489.0,3.18
39499.0,0.92
39510.0,-0.97
39520.0,-2.98
39529.0,-5.18
39539.0,-7.04
39549.0,-8.72
39560.0,-10.33
39569.0,-12.31
39579.0,-14.14
39589.0,-15.89
39600.0,-17.81
39610.0,-19.58
39619.0,-21.01
39629.0,-22.49
39640.0,-23.94
39650.0,-24.93
39659.0,-25.22
39669.0,-25.77
39680.0,-27.14
39690.0,-28.67
39699.0,-29.47
39709.0,-30.38
39719.0,-31.47
39730.0,-32.46
39739.0,-33.19
39749.0,-33.58
39759.0,-33.9
39770.0,-34.15
39780.0,-33.83
39789.0,-33.34
39799.0,-33.81
39810.0,-34.77
39820.0,-34.69
39829.0,-34.06
39839.0,-34.02
39849.0,-33.79
39860.0,-33.51
39869.0,-33.3
39879.0,-33.55
39889.0,-33.47
39900.0,-32.91
39909.0,-32.49
39919.0,-32.15
39929.0,-32.08
39940.0,-31.89
39950.0,-30.96
39959.0,-29.89
39969.0,-29.6
39980.0,-29.47
39990.0,-28.41
39999.0,-27.39
40009.0,-26.8
40019.0,-25.99
40030.0,-24.78
40039.0,-24.13
40049.0,-23.46
40059.0,-22.52
40070.0,-23.0
40079.0,-39.31
40089.0,-105.67
40099.0,-236.12
40110.0,-373.73
40120.0,-422.71
40129.0,-348.01
40139.0,-215.81
40150.0,-127.04
40160.0,-133.52
40169.0,-163.62
40179.0,-106.71
40189.0,-7.48
40200.0,32.41
40209.0,33.58
40219.0,39.75
40229.0,43.85
40240.0,61.96
40250.0,103.01
40259.0,112.33
40269.0,75.8
40280.0,60.63
40290.0,84.41
40299.0,100.11
40309.0,99.26
40320.0,103.21
40330.0,107.73
40339.0,94.27
40349.0,76.06
40359.0,93.21
40370.0,136.63
40379.0,150.56
40389.0,141.88
40399.0,158.61
40410.0,162.84
40420.0,112.14
40429.0,79.52
40439.0,112.85
40450.0,139.08
40460.0,123.77
40469.0,110.61
40479.0,83.7
40489.0,26.44
40500.0,11.86
40509.0,68.26
40519.0,110.32
40529.0,84.33
40540.0,48.45
40549.0,47.79
40559.0,71.31
40569.0,110.57
40580.0,121.23
40590.0,74.87
40599.0,29.9
40609.0,28.57
40620.0,48.2
40630.0,50.39
40639.0,31.58
40649.0,34.32
40659.0,61.18
40670.0,52.75
40679.0,16.9
40689.0,32.03
40699.0,66.64
40710.0,27.19
40719.0,-29.1
40729.0,-11.1
40739.0,23.26
40750.0,21.19
40760.0,23.36
40769.0,14.49
40779.0,-40.82
40790.0,-75.99
40800.0,-51.23
40809.0,-30.83
40819.0,-42.0
40829.0,-49.97
40840.0,-39.64
40849.0,-26.21
40859.0,-45.94
40869.0,-80.26
40880.0,-45.35
40890.0,33.44
40899.0,37.85
40909.0,-14.26
40920.0,-34.27
40930.0,-46.52
40939.0,-75.25
40949.0,-84.99
40960.0,-86.95
40970.0,-96.94
40979.0,-89.8
40989.0,-73.82
40999.0,-89.29
41010.0,-109.7
41019.0,-77.01
41029.0,-24.3
41039.0,-17.58
41050.0,-66.35
41060.0,-133.19
41069.0,-140.41
41079.0,-70.0
41090.0,-21.1
41100.0,-42.29
41109.0,-42.16
41119.0,30.73
41129.0,94.26
41140.0,101.34
41149.0,90.37
41159.0,78.48
41169.0,71.82
41180.0,83.81
41189.0,86.53
41199.0,56.42
41209.0,23.51
41220.0,7.69
41230.0,-9.31
41239.0,-35.09
41249.0,-64.57
41260.0,-100.42
41270.0,-120.02
41279.0,-103.54
41289.0,-89.93
41299.0,-101.83
41310.0,-106.64
41319.0,-96.02
41329.0,-83.55
41339.0,-61.94
41350.0,-56.42
41359.0,-99.56
41369.0,-146.65
41379.0,-157.41
41390.0,-145.47
41400.0,-120.48
41409.0,-93.84
41419.0,-77.13
41430.0,-61.48
41440.0,-39.3
41449.0,-21.61
41459.0,-17.36
41469.0,-23.77
41480.0,-39.01
41489.0,-54.42
41499.0,-67.06
41509.0,-62.22
41520.0,-19.95
41530.0,11.59
41539.0,-6.14
41549.0,-26.78
41560.0,-28.46
41570.0,-43.64
41579.0,-64.18
41589.0,-25.73
41600.0,58.62
41610.0,80.72
41619.0,36.09
41629.0,16.33
41639.0,32.59
41650.0,47.88
41659.0,59.47
41669.0,72.69
41679.0,85.25
41690.0,89.09
41700.0,75.47
41709.0,60.7
41719.0,77.81
41730.0,106.35
41740.0,93.42
41749.0,57.35
41759.0,40.76
41769.0,50.13
41780.0,84.04
41789.0,107.07
41799.0,92.65
41809.0,65.66
41820.0,46.11
41829.0,41.75
41839.0,39.75
41849.0,40.83
41860.0,74.71
41870.0,97.23
41879.0,55.27
41889.0,6.06
41900.0,17.45
41910.0,52.48
41919.0,42.76
41929.0,28.0
41939.0,66.13
41950.0,93.18
41959.0,61.9
41969.0,33.1
41979.0,53.43
41990.0,92.04
41999.0,104.35
42009.0,72.34
42019.0,3.88
42030.0,-29.52
42040.0,17.08
42049.0,61.02
42059.0,56.65
42070.0,40.07
42080.0,17.9
42089.0,11.31
42099.0,34.66
42109.0,55.73
42120.0,50.71
42129.0,14.29
42139.0,-18.73
42149.0,1.93
42160.0,62.94
42170.0,84.39
42179.0,19.18
42189.0,-71.28
42200.0,-153.5
42210.0,-257.24
42219.0,-322.66
42229.0,-297.51
42240.0,-237.65
42250.0,-189.77
42259.0,-172.99
42269.0,-188.4
42279.0,-177.5
42290.0,-92.41
42299.0,24.54
42309.0,111.77
42319.0,170.45
42330.0,208.18
42340.0,212.33
42349.0,205.3
42359.0,196.12
42370.0,162.82
42380.0,125.16
42389.0,102.22
42399.0,79.24
42409.0,48.01
42420.0,15.95
42429.0,6.71
42439.0,31.15
42449.0,62.22
42460.0,66.73
42469.0,56.77
42479.0,68.76
42489.0,79.58
42500.0,62.39
42510.0,39.38
42519.0,16.16
42529.0,-2.63
42540.0,-11.9
42550.0,-17.55
42559.0,-26.75
42569.0,-65.78
42579.0,-106.9
42590.0,-103.14
42599.0,-79.9
42609.0,-58.89
42619.0,-39.46
42630.0,-28.99
42639.0,-32.7
42649.0,-40.36
42659.0,-23.81
42670.0,-5.63
42680.0,-12.69
42689.0,-12.01
42699.0,-6.55
42710.0,-7.56
42720.0,-5.36
42729.0,-16.22
42739.0,-13.72
42749.0,20.75
42760.0,40.32
42769.0,14.85
42779.0,-53.84
42789.0,-108.08
42800.0,-77.37
42810.0,-13.51
42819.0,-8.01
42829.0,-37.2
42840.0,-43.08
42850.0,-47.71
42859.0,-71.49
42869.0,-77.79
42880.0,-56.32
42890.0,-24.73
42899.0,-1.87
42909.0,-19.34
42919.0,-60.33
42930.0,-83.46
42939.0,-88.45
42949.0,-66.6
42959.0,-17.62
42970.0,15.26
42980.0,3.14
42989.0,-27.61
42999.0,-31.03
43010.0,-21.76
43020.0,-35.48
43029.0,-45.32
43039.0,-32.68
43049.0,-20.96
43060.0,-27.57
43069.0,-49.28
43079.0,-61.47
43089.0,-58.1
43100.0,-51.41
43109.0,-41.72
43119.0,-30.99
43129.0,-22.36
43140.0,-27.92
43150.0,-33.82
43159.0,0.79
43169.0,33.51
43180.0,3.19
43190.0,-48.61
43199.0,-60.74
43209.0,-32.83
43219.0,-10.18
43230.0,-8.28
43239.0,5.37
43249.0,41.55
43259.0,77.49
43270.0,70.22
43279.0,19.25
43289.0,-13.36
43299.0,-23.63
43310.0,-24.51
43320.0,-0.92
43329.0,5.52
43339.0,-3.35
43350.0,29.81
43360.0,85.22
43369.0,125.37
43379.0,154.98
43389.0,191.25
43400.0,230.98
43409.0,240.06
43419.0,220.1
43429.0,197.99
43440.0,170.93
43450.0,128.75
43459.0,73.76
43469.0,36.45
43480.0,35.72
43490.0,32.96
43499.0,-8.81
43509.0,-78.01
43520.0,-128.6
43530.0,-138.01
43539.0,-138.32
43549.0,-149.58
43559.0,-154.1
43570.0,-148.21
43579.0,-152.5
43589.0,-157.26
43599.0,-117.89
43610.0,-51.51
43620.0,-19.43
43629.0,-0.2
43639.0,53.6
43650.0,104.37
43660.0,88.84
43669.0,31.47
43679.0,24.38
43689.0,71.95
43700.0,84.72
43709.0,34.9
43719.0,-15.09
43729.0,-22.3
43740.0,-34.22
43749.0,-67.37
43759.0,-60.85
43769.0,-39.61
43780.0,-45.93
43790.0,-46.81
43799.0,-39.31
43809.0,-28.25
43820.0,-19.85
43830.0,-33.86
43839.0,-46.57
43849.0,-48.5
43859.0,-36.69
43870.0,10.63
43879.0,45.89
43889.0,19.87
43899.0,-16.55
43910.0,-8.83
43919.0,16.93
43929.0,13.96
43939.0,-14.69
43950.0,-32.1
43960.0,-29.16
43969.0,-32.61
43979.0,-47.77
43990.0,-47.29
44000.0,-30.43
44009.0,-5.94
44019.0,31.5
44029.0,48.64
44040.0,32.83
44049.0,30.44
44059.0,46.05
44069.0,51.47
44080.0,53.54
44090.0,65.2
44099.0,66.23
44109.0,39.18
44120.0,31.33
44130.0,68.58
44139.0,87.62
44149.0,74.14
44160.0,75.45
44170.0,86.36
44179.0,66.39
44189.0,22.1
44199.0,28.06
44210.0,92.2
44219.0,105.22
44229.0,48.83
44239.0,31.03
44250.0,64.94
44260.0,54.2
44269.0,-2.78
44279.0,-19.38
44290.0,1.87
44300.0,8.57
44309.0,19.57
44319.0,52.8
44329.0,82.32
44340.0,88.45
44349.0,35.73
44359.0,-78.96
44369.0,-181.9
44380.0,-239.96
44389.0,-271.42
44399.0,-269.62
44409.0,-246.41
44420.0,-238.61
44430.0,-243.69
44439.0,-218.97
44449.0,-147.88
44460.0,-66.45
44470.0,0.18
44479.0,65.37
44489.0,137.81
44499.0,199.64
44510.0,242.29
44519.0,272.86
44529.0,276.77
44539.0,251.57
44550.0,226.52
44559.0,202.27
44569.0,150.56
44579.0,103.21
44590.0,120.56
44600.0,154.38
44609.0,134.68
44619.0,111.48
44630.0,119.0
44640.0,99.27
44649.0,52.25
44659.0,37.52
44669.0,42.9
44680.0,21.8
44689.0,-11.24
44699.0,-16.98
44709.0,-1.56
44720.0,-3.0
44730.0,-26.52
44739.0,-40.75
44749.0,-38.93
44760.0,-34.32
44770.0,-28.19
44779.0,-28.47
44789.0,-45.46
44800.0,-79.12
44810.0,-129.04
44819.0,-163.42
44829.0,-131.09
44839.0,-59.89
44850.0,-29.13
44859.0,-47.31
44869.0,-71.79
44879.0,-79.37
44890.0,-67.68
44900.0,-55.31
44909.0,-62.72
44919.0,-71.54
44930.0,-62.31
44940.0,-57.38
44949.0,-60.44
44959.0,-40.16
44969.0,-10.67
44980.0,-8.73
44989.0,-20.6
44999.0,-29.04
45009.0,-46.8
45020.0,-69.73
45029.0,-81.97
45039.0,-79.53
45049.0,-52.34
45060.0,-14.28
45070.0,-7.98
45079.0,-32.67
45089.0,-51.21
45100.0,-55.38
45110.0,-56.12
45119.0,-47.24
45129.0,-27.99
45139.0,-21.47
45150.0,-36.34
45159.0,-47.93
45169.0,-41.53
45179.0,-32.93
45190.0,-32.95
45199.0,-36.9
45209.0,-40.8
45219.0,-38.5
45230.0,-20.84
45240.0,1.01
45249.0,-6.32
45259.0,-32.22
45270.0,-20.46
45280.0,14.42
45289.0,3.01
45299.0,-34.43
45309.0,-20.69
45320.0,37.1
45329.0,59.37
45339.0,25.97
45349.0,-1.29
45360.0,2.98
45370.0,0.74
45379.0,-14.04
45389.0,-1.11
45400.0,39.89
45410.0,35.09
45419.0,-44.21
45429.0,-79.29
45440.0,4.97
45450.0,82.27
45459.0,56.02
45469.0,4.73
45479.0,5.47
45490.0,35.96
45499.0,53.42
45509.0,48.56
45519.0,28.96
45530.0,7.28
45540.0,1.72
45549.0,10.67
45559.0,17.52
45570.0,19.28
45580.0,10.83
45589.0,-9.03
45599.0,-13.21
45609.0,6.2
45620.0,10.63
45629.0,1.06
45639.0,15.22
45649.0,25.98
45660.0,3.28
45669.0,-6.55
45679.0,20.53
45689.0,57.71
45700.0,114.4
45710.0,194.71
45719.0,243.75
45729.0,252.58
45740.0,263.77
45750.0,266.21
45759.0,231.8
45769.0,183.63
45779.0,149.02
45790.0,109.88
45799.0,39.74
45809.0,-33.38
45819.0,-75.23
45830.0,-100.98
45839.0,-122.04
45849.0,-133.53
45859.0,-142.37
45870.0,-148.37
45880.0,-141.81
45889.0,-133.92
45899.0,-147.26
45910.0,-161.99
45920.0,-150.83
45929.0,-131.47
45939.0,-120.13
45949.0,-121.15
45960.0,-143.45
45969.0,-171.04
45979.0,-166.21
45989.0,-114.23
46000.0,-59.8
46010.0,-55.38
46019.0,-86.83
46029.0,-105.17
46040.0,-89.74
46050.0,-62.24
46059.0,-44.45
46069.0,-21.35
46080.0,3.24
46090.0,-8.77
46099.0,-44.31
46109.0,-50.86
46119.0,-30.44
46130.0,-20.81
46139.0,-15.35
46149.0,8.69
46159.0,24.54
46170.0,17.74
46180.0,12.21
46189.0,7.58
46199.0,10.51
46210.0,34.9
46220.0,63.89
46229.0,85.93
46239.0,78.66
46249.0,18.78
46260.0,-14.36
46269.0,48.38
46279.0,104.06
46289.0,71.69
46300.0,34.78
46309.0,65.13
46319.0,117.78
46329.0,129.7
46340.0,103.99
46350.0,69.5
46359.0,35.8
46369.0,26.49
46380.0,56.46
46390.0,90.36
46399.0,86.76
46409.0,52.15
46419.0,35.6
46430.0,48.32
46439.0,48.4
46449.0,33.83
46459.0,33.68
46470.0,38.6
46479.0,37.09
46489.0,42.55
46499.0,51.96
46510.0,54.43
46520.0,67.14
46529.0,94.99
46539.0,88.23
46550.0,31.49
46560.0,-14.84
46569.0,-18.51
46579.0,-2.03
46589.0,10.48
46600.0,21.05
46609.0,37.45
46619.0,44.9
46629.0,41.74
46640.0,44.29
46650.0,33.4
46659.0,-3.34
46669.0,-25.04
46680.0,-24.34
46690.0,-56.4
46699.0,-142.79
46709.0,-234.03
46720.0,-279.25
46730.0,-280.59
46739.0,-260.38
46749.0,-233.48
46759.0,-213.66
46770.0,-191.35
46779.0,-150.9
46789.0,-111.14
46799.0,-88.78
46810.0,-52.54
46820.0,30.33
46829.0,125.24
46839.0,177.86
46850.0,192.77
46860.0,220.1
46869.0,273.69
46879.0,315.37
46889.0,340.35
46900.0,345.31
46909.0,304.39
46919.0,245.38
46929.0,205.88
46940.0,191.01
46949.0,196.67
46959.0,184.53
46969.0,131.51
46980.0,87.16
46990.0,78.67
46999.0,64.75
47009.0,27.61
47020.0,-1.73
47030.0,-13.47
47039.0,-7.33
47049.0,26.83
47059.0,34.6
47070.0,-25.35
47079.0,-70.52
47089.0,-51.5
47099.0,-39.18
47110.0,-70.55
47119.0,-106.46
47129.0,-128.12
47139.0,-120.23
47150.0,-59.05
47160.0,-9.28
47169.0,-39.18
47179.0,-94.77
47190.0,-120.56
47200.0,-121.69
47209.0,-112.42
47219.0,-121.36
47229.0,-144.16
47240.0,-144.07
47249.0,-127.38
47259.0,-118.02
47269.0,-116.62
47280.0,-108.67
47290.0,-91.87
47299.0,-86.5
47309.0,-90.39
47320.0,-90.27
47330.0,-95.07
47339.0,-106.15
47349.0,-113.36
47360.0,-115.91
47370.0,-121.07
47379.0,-106.78
47389.0,-55.61
47399.0,-31.72
47410.0,-54.67
47419.0,-51.1
47429.0,-15.43
47439.0,6.55
47450.0,9.54
47460.0,3.13
47469.0,-14.36
47479.0,-43.61
47490.0,-69.45
47500.0,-80.68
47509.0,-92.46
47519.0,-104.5
47529.0,-96.05
47540.0,-52.75
47549.0,8.53
47559.0,42.54
47569.0,50.74
47580.0,47.3
47589.0,23.28
47599.0,-5.42
47609.0,-41.32
47620.0,-58.24
47630.0,-12.63
47639.0,29.26
47649.0,14.51
47660.0,-15.35
47670.0,-15.34
47679.0,26.21
47689.0,63.53
47699.0,56.53
47710.0,27.8
47719.0,16.72
47729.0,18.32
47739.0,-11.5
47750.0,-38.86
47759.0,-4.08
47769.0,37.94
47779.0,36.89
47790.0,29.43
47800.0,50.9
47809.0,90.34
47819.0,114.76
47830.0,114.35
47840.0,84.14
47849.0,30.01
47859.0,-19.38
47869.0,-63.48
47880.0,-80.12
47889.0,-29.25
47899.0,48.07
47909.0,90.81
47920.0,101.86
47930.0,97.87
47939.0,76.88
47949.0,71.26
47960.0,107.21
47970.0,123.0
47979.0,105.03
47989.0,110.54
48000.0,97.76
48010.0,68.79
48019.0,126.47
48029.0,208.13
48039.0,195.13
48050.0,154.67
48059.0,159.61
48069.0,162.12
48079.0,149.34
48090.0,161.49
48100.0,161.93
48109.0,102.05
48119.0,29.6
48130.0,-13.55
48140.0,-25.48
48149.0,-5.66
48159.0,4.63
48169.0,-26.91
48180.0,-61.87
48189.0,-47.33
48199.0,-24.16
48209.0,-73.82
48220.0,-129.76
48229.0,-107.91
48239.0,-87.83
48249.0,-121.96
48260.0,-147.26
48270.0,-135.91
48279.0,-134.64
48289.0,-160.67
48300.0,-160.97
48310.0,-126.39
48319.0,-114.92
48329.0,-131.98
48339.0,-124.88
48350.0,-87.81
48359.0,-75.98
48369.0,-87.16
48379.0,-72.08
48390.0,-54.26
48399.0,-56.29
48409.0,-51.85
48419.0,-56.08
48430.0,-83.77
48440.0,-90.87
48449.0,-41.34
48459.0,20.05
48470.0,20.8
48480.0,-11.19
48489.0,-10.74
48499.0,3.05
48509.0,-4.05
48520.0,-27.27
48529.0,-46.35
48539.0,-54.99
48549.0,-50.49
48560.0,-8.94
48570.0,32.29
48579.0,16.44
48589.0,-13.85
48600.0,-5.28
48610.0,31.12
48619.0,43.36
48629.0,17.11
48640.0,14.17
48650.0,25.92
48659.0,4.58
48669.0,-5.49
48679.0,7.13
48690.0,15.73
48699.0,38.72
48709.0,61.69
48719.0,66.45
48730.0,73.75
48740.0,83.2
48749.0,79.94
48759.0,69.44
48770.0,73.31
48780.0,89.58
48789.0,79.26
48799.0,12.43
48809.0,-72.21
48820.0,-52.57
48829.0,73.62
48839.0,96.91
48849.0,-36.66
48860.0,-127.5
48869.0,-94.08
48879.0,-31.31
48889.0,11.5
48900.0,52.35
48910.0,80.74
48919.0,84.7
48929.0,82.62
48940.0,69.86
48950.0,62.74
48959.0,90.89
48969.0,112.24
48979.0,101.7
48990.0,89.41
48999.0,85.33
49009.0,79.98
49019.0,72.97
49030.0,68.73
49039.0,52.76
49049.0,30.24
49059.0,25.95
49070.0,36.25
49080.0,60.42
49089.0,29.31
49099.0,-132.93
49110.0,-288.87
49120.0,-304.93
49129.0,-261.43
49139.0,-238.28
49149.0,-213.46
49160.0,-166.87
49169.0,-124.54
49179.0,-103.35
49189.0,-71.41
49200.0,2.91
49210.0,95.56
49219.0,156.82
49229.0,177.58
49240.0,184.01
49250.0,182.15
49259.0,175.06
49269.0,181.35
49280.0,188.14
49290.0,180.95
49299.0,167.31
49309.0,144.56
49319.0,123.42
49330.0,125.08
49339.0,145.19
49349.0,143.96
49359.0,102.92
49370.0,74.37
49380.0,78.95
49389.0,69.22
49399.0,43.57
49410.0,33.6
49420.0,29.16
49429.0,5.97
49439.0,-20.94
49449.0,-12.98
49460.0,5.05
49469.0,-18.69
49479.0,-41.07
49489.0,-15.21
49500.0,-1.01
49509.0,-39.52
49519.0,-72.06
49529.0,-61.97
49540.0,-53.96
49550.0,-70.06
49559.0,-77.85
49569.0,-66.92
49580.0,-56.96
49590.0,-58.31
49599.0,-62.02
49609.0,-69.79
49619.0,-94.89
49630.0,-101.55
49639.0,-65.09
49649.0,-62.83
49659.0,-141.39
49670.0,-186.17
49679.0,-109.45
49689.0,-26.51
49699.0,-32.21
49710.0,-48.07
49720.0,-24.11
49729.0,-9.65
49739.0,-31.38
49750.0,-71.81
49760.0,-101.54
49769.0,-101.49
49779.0,-81.66
49789.0,-62.43
49800.0,-60.54
49809.0,-83.78
49819.0,-108.59
49829.0,-105.83
49840.0,-84.43
49850.0,-62.09
49859.0,-38.02
49869.0,-19.91
49880.0,-24.89
49890.0,-40.68
49899.0,-38.79
49909.0,-25.6
49920.0,-21.51
49930.0,-29.86
49939.0,-48.02
49949.0,-64.51
49959.0,-58.21
49970.0,-21.18
49979.0,19.28
49989.0,29.3
49999.0,4.28
50010.0,-41.72
50020.0,-72.66
50029.0,-61.08
50039.0,-36.19
50050.0,-24.35
50060.0,-10.04
50069.0,-1.28
50079.0,-10.72
50089.0,-6.08
50100.0,13.85
50109.0,17.82
50119.0,23.36
50129.0,36.28
50140.0,34.06
50149.0,30.59
50159.0,28.83
50169.0,20.3
50180.0,21.96
50190.0,25.72
50199.0,22.41
50209.0,27.76
50220.0,23.71
50230.0,-1.57
50239.0,-11.83
50249.0,0.72
50259.0,19.29
50270.0,43.14
50279.0,45.3
50289.0,2.69
50299.0,-23.62
50310.0,39.14
50319.0,141.09
50329.0,200.67
50339.0,248.45
50350.0,313.86
50360.0,328.84
50369.0,277.17
50379.0,242.4
50390.0,248.35
50400.0,233.45
50409.0,177.17
50419.0,114.43
50429.0,66.54
50440.0,24.1
50449.0,-27.28
50459.0,-72.28
50469.0,-94.68
50480.0,-116.72
50490.0,-141.83
50499.0,-134.29
50509.0,-105.84
50520.0,-115.05
50530.0,-155.59
50539.0,-162.8
50549.0,-120.48
50560.0,-74.11
50570.0,-82.14
50579.0,-148.99
50589.0,-185.06
50599.0,-136.02
50610.0,-78.9
50619.0,-83.02
50629.0,-118.21
50639.0,-129.43
50650.0,-104.73
50660.0,-75.67
50669.0,-60.03
50679.0,-41.82
50690.0,-21.35
50700.0,-17.31
50709.0,-27.77
50719.0,-29.27
50729.0,-8.58
50740.0,6.9
50749.0,-15.52
50759.0,-53.72
50769.0,-62.94
50780.0,-38.04
50789.0,-3.66
50799.0,18.84
50809.0,27.39
50820.0,44.6
50830.0,79.02
50839.0,91.68
50849.0,51.7
50860.0,-4.49
50870.0,-19.35
50879.0,-4.16
50889.0,3.07
50899.0,16.57
50910.0,39.0
50919.0,47.78
50929.0,58.35
50939.0,67.38
50950.0,53.76
50959.0,50.37
50969.0,75.03
50979.0,90.89
50990.0,80.27
51000.0,69.11
51009.0,71.67
51019.0,64.0
51030.0,40.83
51040.0,30.11
51049.0,42.76
51059.0,56.54
51069.0,41.42
51080.0,23.1
51089.0,44.9
51099.0,71.17
51109.0,59.6
51120.0,42.94
51130.0,49.96
51139.0,53.31
51149.0,40.37
51160.0,39.13
51170.0,49.89
51179.0,45.86
51189.0,21.72
51200.0,-6.29
51210.0,-7.02
51219.0,20.88
51229.0,32.64
51239.0,19.85
51250.0,12.3
51259.0,8.05
51269.0,0.98
51279.0,10.57
51290.0,28.09
51300.0,20.58
51309.0,2.12
51319.0,-0.25
51330.0,-6.27
51340.0,-25.84
51349.0,-25.96
51359.0,4.85
51369.0,17.99
51380.0,-27.77
51389.0,-100.55
51399.0,-153.46
51409.0,-212.91
51420.0,-313.33
51429.0,-380.71
51439.0,-346.17
51449.0,-283.12
51460.0,-257.26
51470.0,-229.99
51479.0,-175.5
51489.0,-116.1
51500.0,-55.28
51510.0,42.02
51519.0,162.86
51529.0,230.55
51539.0,244.08
51550.0,258.67
51559.0,267.33
51569.0,264.63
51579.0,283.05
51590.0,308.57
51599.0,291.56
51609.0,241.55
51619.0,213.94
51630.0,204.7
51640.0,176.73
51649.0,144.07
51659.0,127.71
51670.0,113.98
51680.0,85.94
51689.0,56.86
51699.0,50.67
51709.0,34.48
51720.0,-21.12
51729.0,-48.09
51739.0,2.62
51749.0,38.24
51760.0,-21.76
51770.0,-84.64
51779.0,-62.87
51789.0,-30.86
51800.0,-57.02
51810.0,-92.4
51819.0,-83.48
51829.0,-62.08
51840.0,-78.4
51850.0,-87.98
51859.0,-43.9
51869.0,-13.25
51879.0,-31.04
51890.0,-44.36
51899.0,-52.16
51909.0,-84.54
51919.0,-110.75
51930.0,-96.65
51940.0,-79.28
51949.0,-84.55
51959.0,-74.46
51970.0,-54.66
51980.0,-56.97
51989.0,-54.24
51999.0,-40.66
52009.0,-52.13
52020.0,-83.29
52029.0,-94.57
52039.0,-85.3
52049.0,-100.52
52060.0,-133.15
52069.0,-127.52
52079.0,-82.99
52089.0,-46.47
52100.0,-50.74
52110.0,-70.06
52119.0,-58.52
52129.0,-34.7
52140.0,-27.98
52150.0,-33.71
52159.0,-48.66
52169.0,-60.17
52179.0,-65.28
52190.0,-70.69
52199.0,-58.37
52209.0,-20.44
52219.0,13.73
52230.0,10.98
52239.0,-4.17
52249.0,13.25
52259.0,26.76
52270.0,-16.25
52280.0,-71.03
52289.0,-50.26
52299.0,16.17
52310.0,4.01
52320.0,-64.97
52329.0,-65.63
52339.0,-11.12
52349.0,12.8
52360.0,-0.29
52369.0,-0.63
52379.0,22.7
52389.0,33.77
52400.0,47.25
52410.0,67.71
52419.0,46.01
52429.0,6.56
52440.0,-12.32
52450.0,-19.91
52459.0,4.42
52469.0,55.44
52480.0,79.92
52490.0,53.38
52499.0,18.32
52509.0,31.54
52519.0,65.81
52530.0,77.73
52539.0,76.26
52549.0,85.68
52559.0,130.29
52570.0,179.58
52580.0,187.04
52589.0,174.86
52599.0,170.78
52610.0,161.14
52620.0,138.56
52629.0,122.2
52639.0,118.07
52649.0,114.21
52660.0,110.51
52669.0,100.14
52679.0,68.57
52689.0,12.07
52700.0,-66.94
52709.0,-107.6
52719.0,-66.66
52729.0,-14.34
52740.0,0.78
52750.0,-21.19
52759.0,-78.66
52769.0,-126.87
52780.0,-135.62
52790.0,-111.74
52799.0,-77.65
52809.0,-67.81
52819.0,-73.88
52830.0,-90.22
52839.0,-123.06
52849.0,-136.06
52859.0,-113.7
52870.0,-81.82
52879.0,-78.88
52889.0,-101.64
52899.0,-95.49
52910.0,-68.23
52920.0,-43.61
52929.0,-0.94
52939.0,30.36
52950.0,9.93
52960.0,-42.42
52969.0,-65.03
52979.0,-19.4
52989.0,37.9
53000.0,46.19
53009.0,13.48
53019.0,-24.27
53029.0,-31.92
53040.0,-18.41
53050.0,-7.37
53059.0,-4.18
53069.0,-13.65
53080.0,-16.34
53090.0,-4.85
53099.0,2.89
53109.0,14.51
53120.0,31.62
53130.0,59.96
53139.0,113.99
53149.0,144.88
53159.0,91.7
53170.0,-1.04
53179.0,-18.26
53189.0,40.34
53199.0,67.32
53210.0,56.95
53220.0,62.89
53229.0,64.39
53239.0,38.25
53250.0,11.89
53260.0,7.37
53269.0,-1.9
53279.0,-23.85
53289.0,-15.71
53300.0,8.5
53309.0,18.69
53319.0,21.7
53329.0,-2.71
53340.0,-40.62
53349.0,-53.47
53359.0,-43.28
53369.0,-13.45
53380.0,16.4
53390.0,34.46
53399.0,57.77
53409.0,77.37
53420.0,81.36
53430.0,67.02
53439.0,47.5
53449.0,50.28
53459.0,49.73
53470.0,18.11
53479.0,-7.05
53489.0,-8.32
53499.0,-15.79
53510.0,-33.85
53519.0,-39.45
53529.0,-29.56
53539.0,-2.23
53550.0,36.48
53560.0,43.09
53569.0,21.24
53579.0,11.87
53590.0,2.89
53600.0,-2.07
53609.0,14.56
53619.0,17.0
53629.0,-5.32
53640.0,-11.48
53649.0,21.29
53659.0,56.64
53669.0,47.28
53680.0,21.06
53690.0,14.2
53699.0,14.13
53709.0,6.9
53720.0,-15.46
53730.0,-28.02
53739.0,-16.45
53749.0,-14.3
53760.0,-3.66
53770.0,14.31
53779.0,-49.26
53789.0,-175.48
53799.0,-240.65
53810.0,-227.16
53819.0,-210.74
53829.0,-225.95
53839.0,-244.72
53850.0,-248.45
53860.0,-234.59
53869.0,-197.13
53879.0,-139.48
53890.0,-67.53
53900.0,-1.3
53909.0,55.37
53919.0,116.36
53929.0,167.8
53940.0,205.52
53949.0,239.63
53959.0,264.93
53969.0,252.22
53980.0,182.0
53989.0,127.5
53999.0,153.99
54009.0,195.82
54020.0,191.71
54030.0,164.65
54039.0,147.28
54049.0,133.8
54060.0,101.62
54070.0,77.21
54079.0,86.94
54089.0,100.4
54099.0,97.33
54110.0,76.47
54119.0,36.71
54129.0,-0.06
54139.0,-2.1
54150.0,29.2
54159.0,40.72
54169.0,10.19
54179.0,-7.96
54190.0,2.89
54200.0,4.84
54209.0,-1.98
54219.0,-6.39
54230.0,-17.77
54240.0,-30.78
54249.0,-32.07
54259.0,-19.88
54269.0,-19.82
54280.0,-51.33
54289.0,-75.45
54299.0,-60.41
54309.0,-38.51
54320.0,-49.82
54330.0,-80.16
54339.0,-79.39
54349.0,-50.8
54360.0,-45.16
54370.0,-59.66
54379.0,-58.71
54389.0,-47.12
54400.0,-41.3
54410.0,-40.21
54419.0,-42.53
54429.0,-38.56
54439.0,-22.87
54450.0,-26.29
54459.0,-63.89
54469.0,-96.63
54479.0,-96.47
54490.0,-77.45
54500.0,-54.16
54509.0,-35.95
54519.0,-45.8
54530.0,-75.01
54540.0,-70.75
54549.0,-34.41
54559.0,-38.06
54569.0,-105.58
54580.0,-167.77
54589.0,-157.56
54599.0,-104.78
54609.0,-67.09
54620.0,-34.31
54629.0,-5.55
54639.0,-3.91
54649.0,0.04
54660.0,13.79
54670.0,-2.22
54679.0,-31.71
54689.0,-19.39
54700.0,39.82
54710.0,91.69
54719.0,81.94
54729.0,26.78
54739.0,-7.66
54750.0,4.71
54759.0,33.79
54769.0,33.62
54779.0,-32.66
54790.0,-117.73
54799.0,-101.08
54809.0,12.42
54819.0,76.2
54830.0,38.15
54840.0,-7.92
54849.0,-2.21
54859.0,11.88
54870.0,3.21
54880.0,0.93
54889.0,24.9
54899.0,76.16
54909.0,150.88
54920.0,208.46
54929.0,191.26
54939.0,115.36
54949.0,82.12
54960.0,134.66
54970.0,205.26
54979.0,230.52
54989.0,202.76
55000.0,138.03
55010.0,53.14
55019.0,-35.69
55029.0,-114.04
55040.0,-156.4
55050.0,-137.84
55059.0,-101.76
55069.0,-117.23
55079.0,-159.56
55090.0,-146.0
55099.0,-92.28
55109.0,-116.03
55119.0,-214.9
55130.0,-220.96
55140.0,-101.19
55149.0,-24.96
55159.0,-49.33
55170.0,-68.05
55180.0,-49.56
55189.0,-54.26
55199.0,-82.03
55209.0,-77.81
55220.0,-52.18
55229.0,-66.55
55239.0,-133.99
55249.0,-187.01
55260.0,-127.73
55269.0,25.4
55279.0,113.19
55289.0,76.06
55300.0,32.25
55310.0,48.56
55319.0,64.45
55329.0,38.4
55340.0,6.45
55350.0,13.22
55359.0,44.14
55369.0,64.19
55379.0,69.26
55390.0,57.49
55399.0,34.17
55409.0,30.0
55419.0,50.44
55430.0,63.29
55439.0,57.76
55449.0,53.53
55459.0,53.63
55470.0,47.71
55480.0,42.13
55489.0,53.59
55499.0,74.31
55510.0,65.78
55520.0,28.7
55529.0,7.59
55539.0,9.92
55549.0,23.73
55560.0,57.79
55569.0,93.64
55579.0,85.8
55589.0,39.82
55600.0,10.84
55610.0,20.55
55619.0,45.01
55629.0,73.27
55640.0,106.04
55650.0,112.08
55659.0,55.21
55669.0,-24.98
55680.0,-31.2
55690.0,36.39
55699.0,61.16
55709.0,14.18
55719.0,-10.38
55730.0,14.65
55739.0,25.75
55749.0,17.32
55759.0,38.8
55770.0,67.27
55780.0,52.1
55789.0,24.42
55799.0,21.68
55810.0,15.67
55820.0,-9.06
55829.0,-23.45
55839.0,-17.21
55849.0,0.66
55860.0,19.1
55869.0,18.98
55879.0,10.95
55889.0,18.24
55900.0,23.21
55909.0,0.15
55919.0,-28.99
55929.0,-21.12
55940.0,15.17
55950.0,19.89
55959.0,-24.21
55969.0,-51.65
55980.0,-36.67
55990.0,-40.86
55999.0,-76.54
56009.0,-102.55
56019.0,-123.87
56030.0,-139.57
56039.0,-110.45
56049.0,-52.81
56059.0,-28.75
56070.0,-24.57
56079.0,13.99
56089.0,49.51
56099.0,29.97
56110.0,15.42
56120.0,50.7
56129.0,74.52
56139.0,54.57
56150.0,30.12
56160.0,34.23
56169.0,46.28
56179.0,17.63
56189.0,-6.2
56200.0,33.4
56209.0,13.63
56219.0,-152.68
56229.0,-300.91
56240.0,-305.19
56250.0,-276.46
56259.0,-303.79
56269.0,-306.46
56280.0,-241.84
56290.0,-182.14
56299.0,-156.37
56309.0,-109.58
56320.0,-2.72
56330.0,121.93
56339.0,202.92
56349.0,229.47
56359.0,213.19
56370.0,188.22
56379.0,195.62
56389.0,221.18
56399.0,222.13
56410.0,203.09
56420.0,199.73
56429.0,191.06
56439.0,148.66
56450.0,137.8
56460.0,182.66
56469.0,182.67
56479.0,88.58
56489.0,-3.62
56500.0,12.79
56509.0,83.46
56519.0,89.69
56529.0,48.63
56540.0,18.5
56549.0,5.79
56559.0,19.02
56569.0,23.44
56580.0,-6.66
56590.0,-5.33
56599.0,22.79
56609.0,-5.03
56620.0,-60.68
56630.0,-71.57
56639.0,-47.0
56649.0,-25.49
56659.0,-42.02
56670.0,-94.16
56679.0,-98.01
56689.0,-35.32
56699.0,-8.92
56710.0,-32.73
56719.0,-33.47
56729.0,-8.19
56739.0,-1.58
56750.0,-31.75
56760.0,-68.74
56769.0,-85.65
56779.0,-94.99
56790.0,-108.06
56800.0,-132.02
56809.0,-160.32
56819.0,-166.38
56829.0,-142.99
56840.0,-85.51
56849.0,-23.46
56859.0,-23.98
56869.0,-65.64
56880.0,-71.9
56890.0,-48.29
56899.0,-43.62
56909.0,-55.0
56920.0,-48.42
56930.0,-32.18
56939.0,-34.64
56949.0,-50.58
56960.0,-70.73
56970.0,-71.63
56979.0,-25.89
56989.0,16.07
56999.0,-2.83
57010.0,-37.7
57019.0,-25.94
57029.0,9.79
57039.0,17.72
57050.0,-2.28
57060.0,-21.11
57069.0,-6.72
57079.0,33.89
57090.0,44.61
57100.0,23.29
57109.0,13.18
57119.0,7.01
57129.0,-21.88
57140.0,-56.7
57149.0,-49.94
57159.0,-7.49
57169.0,13.61
57180.0,14.66
57189.0,20.47
57199.0,36.25
57209.0,68.95
57220.0,93.15
57230.0,97.49
57239.0,81.89
57249.0,13.84
57260.0,-57.95
57270.0,-40.22
57279.0,35.25
57289.0,73.88
57299.0,64.82
57310.0,60.96
57319.0,67.82
57329.0,61.49
57339.0,59.83
57350.0,65.49
57359.0,63.34
57369.0,58.27
57379.0,44.15
57390.0,41.14
57400.0,68.78
57409.0,56.01
57419.0,-35.03
57430.0,-91.46
57440.0,-40.91
57449.0,20.91
57459.0,33.71
57469.0,40.8
57480.0,38.42
57489.0,28.45
57499.0,47.17
57509.0,55.77
57520.0,24.57
57530.0,-0.18
57539.0,21.32
57549.0,66.03
57560.0,74.92
57570.0,37.99
57579.0,-13.77
57589.0,-44.43
57600.0,-22.66
57610.0,9.61
57619.0,-0.73
57629.0,-16.93
57639.0,-4.92
57650.0,7.61
57659.0,-2.67
57669.0,-23.0
57679.0,-19.42
57690.0,21.46
57700.0,79.33
57709.0,131.6
57719.0,158.69
57730.0,153.62
57740.0,142.18
57749.0,154.34
57759.0,156.64
57769.0,100.82
57780.0,22.25
57789.0,-18.89
57799.0,-8.86
57809.0,20.29
57820.0,40.76
57829.0,70.47
57839.0,82.04
57849.0,24.69
57860.0,-53.67
57870.0,-93.79
57879.0,-102.57
57889.0,-109.4
57900.0,-126.65
57910.0,-138.77
57919.0,-146.12
57929.0,-160.77
57939.0,-175.81
57950.0,-177.87
57959.0,-159.9
57969.0,-137.17
57979.0,-114.37
57990.0,-89.19
57999.0,-101.87
58009.0,-153.46
58019.0,-183.76
58030.0,-171.19
58040.0,-142.95
58049.0,-125.93
58059.0,-119.54
58070.0,-107.74
58080.0,-93.43
58089.0,-99.52
58099.0,-125.65
58109.0,-110.79
58120.0,-26.85
58129.0,37.84
58139.0,18.39
58149.0,-21.93
58160.0,0.27
58170.0,67.6
58179.0,84.38
58189.0,40.83
58200.0,30.15
58210.0,61.08
58219.0,66.4
58229.0,42.9
58240.0,27.33
58250.0,28.69
58259.0,34.84
58269.0,42.76
58279.0,51.53
58290.0,53.97
58299.0,48.52
58309.0,22.46
58319.0,-3.52
58330.0,21.8
58340.0,69.06
58349.0,87.52
58359.0,85.9
58370.0,68.89
58380.0,49.56
58389.0,44.59
58399.0,37.28
58409.0,32.44
58420.0,47.51
58429.0,51.69
58439.0,8.12
58449.0,-37.32
58460.0,-8.86
58469.0,65.25
58479.0,101.53
58489.0,86.48
58500.0,67.88
58510.0,66.1
58519.0,32.47
58529.0,-25.86
58540.0,-21.52
58550.0,32.04
58559.0,55.06
58569.0,44.28
58579.0,23.74
58590.0,11.24
58599.0,27.13
58609.0,58.33
58619.0,60.12
58630.0,20.42
58639.0,5.86
58649.0,38.43
58659.0,56.27
58670.0,43.44
58680.0,19.39
58689.0,7.24
58699.0,17.79
58710.0,20.58
58720.0,13.62
58729.0,22.48
58739.0,40.77
58749.0,52.34
58760.0,45.46
58769.0,27.25
58779.0,17.43
58789.0,27.18
58800.0,51.96
58810.0,47.68
58819.0,8.26
58829.0,5.12
58840.0,38.85
58850.0,40.64
58859.0,15.49
58869.0,10.48
58880.0,17.05
58890.0,-5.01
58899.0,-42.31
58909.0,-39.28
58919.0,-2.32
58930.0,16.31
58939.0,27.26
58949.0,54.35
58959.0,28.48
58970.0,-73.61
58980.0,-106.62
58989.0,-16.11
58999.0,43.9
59010.0,7.49
59020.0,-32.19
59029.0,-30.41
59039.0,-18.82
59049.0,-7.8
59060.0,5.35
59069.0,-1.94
59079.0,-20.15
59089.0,-15.08
59100.0,-6.18
59109.0,-18.58
59119.0,-38.18
59129.0,-35.98
59140.0,-5.64
59150.0,-8.06
59159.0,-67.55
59169.0,-98.14
59180.0,-64.46
59190.0,-35.67
59199.0,-41.45
59209.0,-41.58
59219.0,-17.09
59230.0,4.46
59239.0,-0.69
59249.0,-22.46
59259.0,-36.48
59270.0,-40.75
59279.0,-55.36
59289.0,-78.67
59299.0,-81.87
59310.0,-58.17
59320.0,-31.6
59329.0,-21.55
59339.0,-38.04
59350.0,-65.25
59360.0,-62.21
59369.0,-40.6
59379.0,-40.82
59389.0,-36.08
59400.0,1.44
59409.0,24.94
59419.0,9.01
59429.0,-12.43
59440.0,-24.75
59450.0,-23.49
59459.0,-0.6
59469.0,24.67
59480.0,33.54
59490.0,19.02
59499.0,-9.23
59509.0,-15.01
59520.0,2.09
59530.0,2.37
59539.0,-19.82
59549.0,-30.69
59559.0,-12.5
59570.0,4.98
59579.0,-4.47
59589.0,-15.43
59599.0,-12.29
59610.0,-23.89
59620.0,-37.5
59629.0,3.73
59639.0,74.21
59650.0,77.37
59660.0,2.81
59669.0,-70.84
59679.0,-137.53
59689.0,-246.94
59700.0,-340.32
59709.0,-332.56
59719.0,-281.31
59729.0,-265.28
59740.0,-253.01
59749.0,-201.2
59759.0,-128.47
59769.0,-68.33
59780.0,3.93
59790.0,123.15
59799.0,214.84
59809.0,211.93
59820.0,209.87
59830.0,275.52
59839.0,317.36
59849.0,295.74
59859.0,278.39
59870.0,280.53
59879.0,268.11
59889.0,237.54
59899.0,195.32
59910.0,160.05
59919.0,159.27
59929.0,170.94
59939.0,164.69
59950.0,145.74
59960.0,116.29
59969.0,92.23
59979.0,91.33
59990.0,91.42
60000.0,79.33
60009.0,70.4
60019.0,61.96
60029.0,44.04
60040.0,18.84
60049.0,-0.76
60059.0,0.72
60069.0,1.49
60080.0,-25.43
60090.0,-49.41
60099.0,-47.37
60109.0,-47.57
60120.0,-63.94
60130.0,-98.58
60139.0,-156.77
60149.0,-195.92
60160.0,-165.18
60170.0,-91.25
60179.0,-46.33
60189.0,-42.79
60199.0,-29.46
60210.0,0.44
60219.0,6.83
60229.0,-7.63
60239.0,-21.2
60250.0,-33.15
60260.0,-36.11
60269.0,-23.95
60279.0,-5.93
60290.0,2.02
60300.0,-8.17
60309.0,-17.7
60319.0,-12.09
60329.0,-7.23
60340.0,-9.04
60349.0,-12.61
60359.0,-27.93
60369.0,-44.64
60380.0,-36.77
60389.0,-5.27
60399.0,26.62
60409.0,26.81
60420.0,-13.32
60430.0,-59.57
60439.0,-85.49
60449.0,-89.99
60460.0,-69.65
60470.0,-35.21
60479.0,-7.74
60489.0,0.77
60499.0,-24.22
60510.0,-64.82
60519.0,-78.43
60529.0,-77.15
60539.0,-81.04
60550.0,-74.96
60559.0,-68.17
60569.0,-52.19
60579.0,-5.22
60590.0,25.88
60600.0,7.59
60609.0,-35.14
60619.0,-88.11
60630.0,-107.09
60640.0,-38.83
60649.0,43.9
60659.0,53.15
60669.0,58.3
60680.0,130.12
60689.0,197.9
60699.0,175.81
60709.0,76.78
60720.0,-8.6
60730.0,-11.0
60739.0,22.31
60749.0,-3.87
60760.0,-69.08
60770.0,-60.99
60779.0,27.77
60789.0,89.89
60800.0,97.79
60810.0,106.21
60819.0,119.85
60829.0,129.77
60839.0,153.15
60850.0,153.43
60859.0,93.86
60869.0,31.87
60879.0,9.41
60890.0,-18.1
60900.0,-78.2
60909.0,-137.98
60919.0,-158.34
60930.0,-142.96
60940.0,-141.64
60949.0,-182.55
60959.0,-223.14
60969.0,-209.5
60980.0,-159.35
60989.0,-117.25
60999.0,-87.72
61009.0,-83.95
61020.0,-107.34
61029.0,-104.61
61039.0,-67.89
61049.0,-48.75
61060.0,-55.33
61070.0,-58.3
61079.0,-55.58
61089.0,-63.22
61100.0,-75.85
61110.0,-62.56
61119.0,-19.48
61129.0,-3.62
61139.0,-32.36
61150.0,-29.14
61159.0,7.72
61169.0,0.13
61179.0,-14.88
61190.0,17.21
61199.0,37.95
61209.0,17.2
61219.0,0.44
61230.0,8.69
61240.0,32.82
61249.0,77.63
61259.0,108.61
61270.0,72.21
61280.0,29.24
61289.0,46.62
61299.0,68.51
61309.0,67.83
61320.0,79.47
61329.0,93.07
61339.0,72.25
61349.0,35.95
61360.0,41.84
61370.0,64.24
61379.0,44.34
61389.0,25.69
61400.0,47.69
61410.0,71.9
61419.0,84.08
61429.0,86.63
61440.0,63.22
61450.0,33.36
61459.0,38.67
61469.0,89.41
61479.0,137.3
61490.0,103.71
61499.0,3.99
61509.0,-32.91
61519.0,44.99
61530.0,121.02
61540.0,95.94
61549.0,28.31
61559.0,20.39
61570.0,58.65
61580.0,51.32
61589.0,13.22
61599.0,30.36
61609.0,68.1
61620.0,49.07
61629.0,5.57
61639.0,10.8
61649.0,56.16
61660.0,68.25
61669.0,29.07
61679.0,-15.55
61689.0,-28.09
61700.0,-8.26
61710.0,-3.39
61719.0,-23.77
61729.0,-27.72
61740.0,-17.32
61750.0,-2.09
61759.0,13.84
61769.0,6.13
61779.0,-0.38
61790.0,17.24
61799.0,21.64
61809.0,6.64
61819.0,-3.65
61830.0,-5.75
61839.0,-12.4
61849.0,-33.23
61859.0,-43.21
61870.0,-24.37
61880.0,-5.81
61889.0,-8.41
61899.0,-7.29
61910.0,13.19
61920.0,17.58
61929.0,-3.7
61939.0,-16.41
61949.0,-28.42
61960.0,-44.05
61969.0,-39.87
61979.0,-36.12
61989.0,-44.58
62000.0,-42.96
62010.0,-39.65
62019.0,-47.81
62029.0,-29.86
62040.0,30.75
62050.0,52.54
62059.0,12.51
62069.0,3.97
62080.0,7.68
62090.0,-66.27
62099.0,-171.92
62109.0,-228.39
62119.0,-234.94
62130.0,-230.97
62139.0,-232.31
62149.0,-222.83
62159.0,-188.26
62170.0,-131.1
62180.0,-78.31
62189.0,-44.53
62199.0,-14.53
62210.0,27.02
62220.0,93.78
62229.0,169.76
62239.0,204.4
62249.0,197.09
62260.0,199.5
62269.0,210.06
62279.0,183.3
62289.0,144.16
62300.0,171.97
62309.0,230.44
62319.0,201.09
62329.0,112.42
62340.0,69.22
62350.0,39.96
62359.0,-35.87
62369.0,-92.74
62380.0,-68.46
62390.0,-34.96
62399.0,-63.53
62409.0,-92.34
62419.0,-39.1
62430.0,60.18
62439.0,107.21
62449.0,101.74
62459.0,119.05
62470.0,135.21
62479.0,96.2
62489.0,61.51
62499.0,79.72
62510.0,89.56
62520.0,52.08
62529.0,29.18
62539.0,48.25
62550.0,47.23
62560.0,10.34
62569.0,-8.84
62579.0,9.7
62589.0,22.74
62600.0,-1.5
62609.0,-20.68
62619.0,-9.92
62629.0,-16.58
62640.0,-56.66
62650.0,-85.04
62659.0,-70.34
62669.0,-42.67
62680.0,-41.19
62690.0,-61.61
62699.0,-95.67
62709.0,-114.49
62720.0,-83.37
62730.0,-64.39
62739.0,-111.03
62749.0,-140.05
62759.0,-99.38
62770.0,-61.55
62779.0,-56.78
62789.0,-28.15
62799.0,36.37
62810.0,101.39
62820.0,148.99
62829.0,136.96
62839.0,44.75
62850.0,-46.61
62860.0,-71.97
62869.0,-74.12
62879.0,-101.97
62889.0,-132.01
62900.0,-138.46
62909.0,-133.06
62919.0,-119.55
62929.0,-118.25
62940.0,-135.11
62949.0,-119.94
62959.0,-90.39
62969.0,-105.5
62980.0,-129.84
62990.0,-108.42
62999.0,-64.79
63009.0,-58.18
63020.0,-90.12
63030.0,-106.49
63039.0,-93.97
63049.0,-72.9
63059.0,-41.16
63070.0,-3.01
63079.0,2.17
63089.0,-50.16
63099.0,-75.24
63110.0,-1.04
63119.0,64.7
63129.0,42.65
63139.0,12.27
63150.0,37.98
63160.0,111.16
63169.0,188.2
63179.0,224.43
63190.0,225.51
63200.0,227.96
63209.0,220.7
63219.0,168.86
63229.0,112.39
63240.0,99.04
63249.0,85.43
63259.0,35.52
63269.0,-20.51
63280.0,-62.07
63290.0,-76.62
63299.0,-54.56
63309.0,-36.93
63320.0,-63.64
63330.0,-102.71
63339.0,-107.24
63349.0,-106.51
63360.0,-132.84
63370.0,-127.68
63379.0,-79.37
63389.0,-81.25
63399.0,-139.67
63410.0,-142.88
63419.0,-69.92
63429.0,-34.99
63439.0,-66.65
63450.0,-73.39
63460.0,-42.54
63469.0,-19.32
63479.0,-15.27
63490.0,-22.6
63500.0,-11.33
63509.0,6.91
63519.0,-10.78
63529.0,-37.74
63540.0,-33.66
63549.0,-8.52
63559.0,11.0
63569.0,20.39
63580.0,35.59
63589.0,57.44
63599.0,77.62
63609.0,76.66
63620.0,47.83
63630.0,34.91
63639.0,43.55
63649.0,46.29
63660.0,70.21
63670.0,114.08
63679.0,121.85
63689.0,86.82
63699.0,63.25
63710.0,84.0
63719.0,97.54
63729.0,65.62
63739.0,41.65
63750.0,53.88
63759.0,74.42
63769.0,91.48
63779.0,107.17
63790.0,101.34
63800.0,62.84
63809.0,33.12
63819.0,37.7
63830.0,53.72
63840.0,67.38
63849.0,69.34
63859.0,67.56
63869.0,92.59
63880.0,116.54
63889.0,86.98
63899.0,32.5
63909.0,14.82
63920.0,29.36
63930.0,37.42
63939.0,37.97
63949.0,40.72
63960.0,45.16
63970.0,49.2
63979.0,43.12
63989.0,33.24
64000.0,29.36
64010.0,17.38
64019.0,6.86
64029.0,29.74
64039.0,76.68
64050.0,91.58
64059.0,33.38
64069.0,-43.07
64079.0,-42.61
64090.0,13.91
64100.0,32.39
64109.0,12.1
64119.0,9.52
64130.0,13.37
64140.0,0.83
64149.0,-3.54
64159.0,-3.2
64169.0,-28.23
64180.0,-56.78
64189.0,-52.13
64199.0,-35.35
64209.0,-28.67
64220.0,-15.65
64229.0,-0.78
64239.0,-0.17
64249.0,-9.21
64260.0,-54.75
64270.0,-162.67
64279.0,-264.18
64289.0,-289.78
64300.0,-286.97
64310.0,-308.57
64319.0,-310.9
64329.0,-266.56
64339.0,-221.78
64350.0,-196.89
64359.0,-171.23
64369.0,-139.45
64379.0,-93.11
64390.0,-14.49
64399.0,71.74
64409.0,130.28
64419.0,173.6
64430.0,228.41
64440.0,291.26
64449.0,318.4
64459.0,275.82
64470.0,207.38
64480.0,173.95
64489.0,159.86
64499.0,127.71
64509.0,97.77
64520.0,99.74
64529.0,108.27
64539.0,88.84
64549.0,53.57
64560.0,21.44
64570.0,-3.0
64579.0,3.02
64589.0,37.61
64600.0,43.85
64610.0,9.19
64619.0,-9.15
64629.0,2.5
64640.0,4.95
64650.0,-11.41
64659.0,-28.83
64669.0,-37.86
64679.0,-31.74
64690.0,-13.82
64699.0,-16.89
64709.0,-53.41
64719.0,-76.28
64730.0,-62.24
64740.0,-45.35
64749.0,-38.27
64759.0,-33.3
64770.0,-40.84
64780.0,-53.42
64789.0,-42.8
64799.0,-17.49
64809.0,-10.18
64820.0,-31.72
64829.0,-73.47
64839.0,-100.07
64849.0,-77.87
64860.0,-40.64
64869.0,-42.69
64879.0,-64.85
64889.0,-60.47
64900.0,-40.58
64910.0,-33.6
64919.0,-29.39
64929.0,-9.88
64940.0,7.31
64950.0,-23.36
64959.0,-102.38
64969.0,-137.1
64979.0,-66.51
64990.0,20.61
64999.0,28.96
65009.0,-16.69
65019.0,-59.21
65030.0,-67.28
65039.0,-42.46
65049.0,-21.27
65059.0,-17.62
65070.0,-26.06
65080.0,-42.71
65089.0,-48.49
65099.0,-47.89
65110.0,-49.13
65120.0,-44.57
65129.0,-62.52
65139.0,-91.73
65149.0,-68.57
65160.0,-20.66
65169.0,-9.11
65179.0,-14.57
65189.0,-11.33
65200.0,-2.57
65210.0,16.26
65219.0,44.95
65229.0,77.21
65240.0,87.93
65250.0,45.79
65259.0,-0.32
65269.0,5.18
65280.0,4.21
65290.0,-37.35
65299.0,-53.15
65309.0,-13.05
65319.0,39.77
65330.0,50.28
65339.0,10.82
65349.0,-17.58
65359.0,0.39
65370.0,29.85
65380.0,31.97
65389.0,1.34
65399.0,-15.12
65410.0,23.91
65420.0,64.11
65429.0,51.34
65439.0,28.46
65449.0,32.05
65460.0,44.7
65469.0,63.78
65479.0,90.04
65489.0,117.53
65500.0,168.4
65509.0,243.46
65519.0,288.72
65529.0,271.53
65540.0,212.23
65550.0,143.58
65559.0,107.9
65569.0,131.5
65580.0,150.65
65590.0,88.07
65599.0,-1.62
65609.0,-37.93
65619.0,-55.15
65630.0,-84.5
65639.0,-93.92
65649.0,-94.99
65659.0,-122.39
65670.0,-161.42
65679.0,-183.82
65689.0,-176.02
65699.0,-141.78
65710.0,-118.84
65720.0,-133.28
65729.0,-151.19
65739.0,-149.64
65750.0,-140.68
65760.0,-100.78
65769.0,-34.12
65779.0,-5.38
65789.0,-38.07
65800.0,-110.92
65809.0,-174.43
65819.0,-150.62
65829.0,-50.57
65840.0,12.66
65850.0,4.03
65859.0,-11.1
65869.0,-7.74
65880.0,-16.2
65890.0,-34.27
65899.0,-24.66
65909.0,1.04
65920.0,-4.9
65930.0,-26.11
65939.0,-12.63
65949.0,24.83
65959.0,40.7
65970.0,29.57
65979.0,24.99
65989.0,29.59
65999.0,21.53
66010.0,21.4
66020.0,37.77
66029.0,33.88
66039.0,22.3
66050.0,59.88
66060.0,118.46
66069.0,103.78
66079.0,42.99
66089.0,38.93
66100.0,49.71
66109.0,6.08
66119.0,-27.05
66129.0,-6.01
66140.0,18.79
66149.0,22.43
66159.0,46.42
66169.0,98.46
66180.0,113.21
66190.0,75.96
66199.0,35.38
66209.0,31.26
66220.0,70.96
66230.0,85.95
66239.0,54.11
66249.0,64.21
66259.0,89.21
66270.0,34.25
66279.0,-30.34
66289.0,-9.79
66299.0,42.2
66310.0,44.9
66319.0,20.19
66329.0,33.29
66339.0,77.37
66350.0,89.75
66360.0,47.25
66369.0,1.75
66379.0,-7.02
66390.0,-14.57
66400.0,-41.48
66409.0,-56.44
66419.0,-32.55
66429.0,13.25
66440.0,17.0
66449.0,-20.77
66459.0,-18.63
66469.0,24.57
66480.0,40.28
66490.0,21.13
66499.0,11.78
66509.0,12.5
66520.0,-16.97
66530.0,-41.14
66539.0,-11.56
66549.0,8.52
66560.0,-22.54
66570.0,-51.3
66579.0,-50.86
66589.0,-54.75
66599.0,-108.5
66610.0,-215.78
66619.0,-304.86
66629.0,-291.43
66639.0,-201.55
66650.0,-151.71
66660.0,-167.76
66669.0,-175.42
66679.0,-153.73
66690.0,-130.32
66700.0,-104.24
66709.0,-49.43
66719.0,43.35
66729.0,125.49
66740.0,171.51
66749.0,205.95
66759.0,225.69
66769.0,225.46
66780.0,205.66
66789.0,172.2
66799.0,157.93
66809.0,169.14
66820.0,166.49
66830.0,134.73
66839.0,120.05
66849.0,135.45
66860.0,146.89
66870.0,159.76
66879.0,160.45
66889.0,118.72
66899.0,59.84
66910.0,-11.53
66919.0,-93.5
66929.0,-127.6
66939.0,-101.5
66950.0,-48.46
66959.0,5.66
66969.0,-7.82
66979.0,-89.0
66990.0,-78.07
67000.0,65.51
67009.0,150.94
67019.0,102.87
67030.0,30.06
67040.0,-48.42
67049.0,-128.84
67059.0,-76.63
67069.0,126.11
67080.0,242.1
67089.0,124.9
67099.0,-23.34
67109.0,-27.06
67120.0,0.77
67130.0,-5.3
67139.0,16.87
67149.0,45.82
67160.0,34.5
67170.0,-10.92
67179.0,-53.14
67189.0,-59.94
67200.0,-50.34
67210.0,-43.5
67219.0,-40.43
67229.0,-40.96
67239.0,-5.45
67250.0,71.83
67259.0,107.4
67269.0,60.96
67279.0,-13.96
67290.0,-88.91
67300.0,-158.78
67309.0,-164.54
67319.0,-104.46
67330.0,-78.54
67340.0,-115.84
67349.0,-162.71
67359.0,-170.29
67369.0,-111.87
67380.0,-52.04
67389.0,-61.56
67399.0,-80.89
67409.0,-48.59
67420.0,-39.12
67429.0,-142.38
67439.0,-235.63
67449.0,-136.61
67460.0,35.43
67470.0,47.72
67479.0,-62.23
67489.0,-94.76
67500.0,-29.22
67510.0,-9.24
67519.0,-48.41
67529.0,-48.3
67539.0,-2.48
67550.0,30.16
67559.0,15.83
67569.0,-29.27
67579.0,-61.18
67590.0,-48.29
67600.0,-5.56
67609.0,14.56
67619.0,16.32
67630.0,25.37
67640.0,7.7
67649.0,-23.45
67659.0,-26.57
67670.0,-16.42
67680.0,-3.84
67689.0,1.52
67699.0,-2.85
67709.0,7.23
67720.0,23.09
67729.0,17.7
67739.0,-10.5
67749.0,-24.34
67760.0,-3.93
67770.0,-1.3
67779.0,-21.09
67789.0,-18.46
67800.0,-2.97
67810.0,7.71
67819.0,4.89
67829.0,-13.04
67840.0,-19.21
67850.0,-5.22
67859.0,19.79
67869.0,51.16
67879.0,72.87
67890.0,61.27
67899.0,32.01
67909.0,48.15
67919.0,92.61
67930.0,77.74
67940.0,24.82
67949.0,6.32
67959.0,24.06
67970.0,55.16
67980.0,75.17
67989.0,79.37
67999.0,87.25
68009.0,100.95
68020.0,120.55
68029.0,147.31
68039.0,166.31
68049.0,154.18
68060.0,114.47
68069.0,100.53
68079.0,113.24
68089.0,93.87
68100.0,62.2
68110.0,58.03
68119.0,63.88
68129.0,69.57
68140.0,77.49
68150.0,79.53
68159.0,61.72
68169.0,22.59
68179.0,-31.44
68190.0,-73.85
68199.0,-52.58
68209.0,-7.31
68219.0,-36.38
68230.0,-113.59
68239.0,-146.14
68249.0,-115.13
68259.0,-89.99
68270.0,-113.44
68280.0,-109.74
68289.0,-56.85
68299.0,-68.66
68310.0,-163.09
68320.0,-194.99
68329.0,-113.61
68339.0,-77.99
68349.0,-152.51
68360.0,-181.26
68369.0,-109.63
68379.0,-46.94
68389.0,-47.09
68400.0,-77.22
68410.0,-87.23
68419.0,-71.02
68429.0,-41.1
68440.0,-3.58
68450.0,3.48
68459.0,-19.22
68469.0,-35.46
68480.0,-44.96
68490.0,-39.12
68499.0,-9.92
68509.0,27.08
68519.0,45.28
68530.0,28.63
68539.0,20.43
68549.0,45.83
68559.0,64.43
68570.0,59.59
68580.0,44.87
68589.0,38.01
68599.0,42.99
68610.0,33.87
68620.0,8.15
68629.0,-2.95
68639.0,15.68
68649.0,40.2
68660.0,33.99
68669.0,18.17
68679.0,41.98
68689.0,93.41
68700.0,117.12
68709.0,84.77
68719.0,51.93
68729.0,65.53
68740.0,75.63
68750.0,62.88
68759.0,63.57
68769.0,71.1
68780.0,56.65
68790.0,29.48
68799.0,29.9
68809.0,62.14
68819.0,79.09
68830.0,60.12
68839.0,40.77
68849.0,51.12
68859.0,71.57
68870.0,70.63
68879.0,58.23
68889.0,59.67
68899.0,67.59
68910.0,67.08
68920.0,52.7
68929.0,18.06
68939.0,-13.61
68950.0,3.1
68960.0,51.44
68969.0,54.99
68979.0,6.53
68989.0,-14.68
69000.0,5.16
69009.0,2.26
69019.0,-12.31
69029.0,6.81
69040.0,17.46
69050.0,-14.35
69059.0,-54.9
69069.0,-99.36
69080.0,-130.66
69090.0,-89.87
69099.0,-3.3
69109.0,30.44
