Time (ms),Voltage (V)
0.0,64.96
13.0,307.96
26.0,589.46
39.0,594.16
53.0,390.98
66.0,277.15
79.0,246.54
93.0,184.92
106.0,132.64
119.0,123.26
133.0,139.24
146.0,157.18
159.0,105.21
173.0,-36.72
186.0,-149.71
199.0,-155.38
212.0,-131.09
226.0,-135.4
239.0,-119.42
252.0,-100.97
266.0,-162.44
279.0,-233.09
292.0,-204.19
306.0,-131.39
319.0,-97.04
332.0,-132.18
346.0,-195.92
359.0,-178.36
372.0,-106.35
386.0,-90.5
399.0,-137.46
412.0,-210.38
427.0,-252.19
440.0,-217.27
453.0,-167.12
466.0,-171.25
480.0,-186.64
493.0,-178.66
506.0,-177.34
520.0,-160.46
533.0,-124.04
546.0,-116.55
560.0,-105.03
573.0,-81.85
586.0,-126.4
600.0,-211.06
613.0,-245.32
626.0,-228.57
640.0,-167.25
653.0,-75.04
666.0,-35.8
679.0,-66.73
693.0,-88.69
706.0,-72.94
719.0,-60.2
733.0,-76.2
746.0,-90.83
759.0,-75.08
773.0,-51.73
786.0,-26.33
799.0,3.81
813.0,3.87
826.0,3.86
839.0,52.91
852.0,90.4
866.0,77.39
879.0,69.34
892.0,73.59
906.0,44.98
919.0,-5.26
932.0,-18.64
946.0,30.19
959.0,83.77
972.0,77.82
986.0,57.86
999.0,78.46
1012.0,85.32
1026.0,52.39
1039.0,46.04
1052.0,77.92
1067.0,89.18
1080.0,63.82
1093.0,49.48
1106.0,76.82
1120.0,97.12
1133.0,81.36
1146.0,88.31
1160.0,127.43
1173.0,139.71
1186.0,138.91
1200.0,164.88
1213.0,162.4
1226.0,89.78
1240.0,10.14
1253.0,3.96
1266.0,79.39
1280.0,121.05
1293.0,77.63
1306.0,79.21
1319.0,103.48
1333.0,-47.13
1346.0,-308.16
1359.0,-402.35
1373.0,-297.66
1386.0,-199.81
1399.0,-185.97
1413.0,-170.98
1426.0,-121.51
1439.0,-78.86
1453.0,-55.47
1466.0,-31.02
1479.0,-1.21
1492.0,24.75
1506.0,48.59
1519.0,98.62
1532.0,227.53
1546.0,434.73
1559.0,610.27
1572.0,654.87
1586.0,600.64
1599.0,540.8
1612.0,487.91
1626.0,405.47
1639.0,326.38
1652.0,288.59
1666.0,290.78
1679.0,326.2
1692.0,315.62
1705.0,190.05
1720.0,48.41
1733.0,5.26
1746.0,16.06
1760.0,11.58
1773.0,7.62
1786.0,9.79
1800.0,1.01
1813.0,-0.55
1826.0,0.49
1840.0,-18.47
1853.0,-36.27
1866.0,-49.51
1880.0,-74.46
1893.0,-93.4
1906.0,-102.3
1920.0,-101.1
1933.0,-58.04
1946.0,-1.21
1959.0,-21.59
1973.0,-104.94
1986.0,-147.36
1999.0,-140.06
2013.0,-136.02
2026.0,-125.51
2039.0,-96.59
2053.0,-94.99
2066.0,-140.55
2079.0,-188.84
2093.0,-185.28
2106.0,-101.16
2119.0,7.2
2132.0,19.01
2146.0,-59.8
2159.0,-101.79
2172.0,-79.2
2186.0,-75.08
2199.0,-124.58
2212.0,-171.22
2226.0,-182.66
2239.0,-203.42
2252.0,-248.25
2266.0,-304.57
2279.0,-383.55
2292.0,-448.3
2306.0,-442.9
2319.0,-403.19
2332.0,-422.32
2345.0,-482.68
2359.0,-440.35
2373.0,-299.79
2386.0,-248.66
2400.0,-306.89
2413.0,-307.97
2426.0,-223.64
2440.0,-141.87
2453.0,-31.27
2466.0,160.1
2480.0,364.5
2493.0,532.52
2506.0,647.76
2520.0,648.95
2533.0,572.6
2546.0,534.38
2560.0,515.08
2573.0,428.3
2586.0,262.46
2599.0,64.59
2613.0,-93.87
2626.0,-203.05
2639.0,-253.72
2653.0,-127.68
2666.0,121.47
2679.0,182.28
2693.0,23.04
2706.0,-45.85
2719.0,-22.11
2733.0,-157.46
2746.0,-338.16
2759.0,-292.52
2772.0,-87.46
2786.0,79.29
2799.0,175.29
2812.0,209.09
2826.0,143.67
2839.0,17.85
2852.0,-77.9
2866.0,-126.93
2879.0,-134.78
2892.0,-75.42
2906.0,25.99
2919.0,90.63
2932.0,77.77
2946.0,-1.58
2959.0,-74.33
2972.0,-41.67
2985.0,59.68
2999.0,101.16
3012.0,65.14
3026.0,23.47
3040.0,41.92
3053.0,115.38
3066.0,150.73
3080.0,132.55
3093.0,139.55
3106.0,178.77
3120.0,211.17
3133.0,217.83
3146.0,210.92
3160.0,247.24
3173.0,310.23
3186.0,298.2
3200.0,218.58
3213.0,166.83
3226.0,151.07
3239.0,123.68
3253.0,84.04
3266.0,54.22
3279.0,32.44
3293.0,8.58
3306.0,-15.69
3319.0,-36.09
3333.0,-53.43
3346.0,-70.14
3359.0,-86.09
3373.0,-100.41
3386.0,-112.91
3399.0,-123.63
3412.0,-133.17
3426.0,-141.91
3439.0,-149.34
3452.0,-155.42
3466.0,-160.11
3479.0,-163.86
3492.0,-167.09
3506.0,-169.87
3519.0,-171.61
3532.0,-172.02
3546.0,-171.76
3559.0,-171.07
3572.0,-169.6
3586.0,-167.54
3599.0,-165.2
3612.0,-161.93
3625.0,-157.59
3639.0,-153.23
3652.0,-149.64
3665.0,-236.49
3680.0,-582.55
3693.0,-1019.23
3706.0,-1086.87
3720.0,-815.18
3733.0,-639.66
3746.0,-628.24
3760.0,-571.11
3773.0,-449.3
3786.0,-361.37
3800.0,-307.95
3813.0,-243.19
3826.0,-170.43
3840.0,-110.38
3853.0,-59.2
3866.0,-6.71
3879.0,44.07
3893.0,87.52
3906.0,126.02
3919.0,163.04
3933.0,198.09
3946.0,229.76
3959.0,258.18
3973.0,283.95
3986.0,307.41
3999.0,327.68
4013.0,344.51
4026.0,359.02
4039.0,372.02
4052.0,383.26
4066.0,391.66
4079.0,398.13
4092.0,403.73
4106.0,407.73
4119.0,409.14
4132.0,408.67
4146.0,407.11
4159.0,404.47
4172.0,400.73
4186.0,395.8
4199.0,389.38
4212.0,381.89
4226.0,373.61
4239.0,364.5
4252.0,354.47
4265.0,343.75
4279.0,332.52
4292.0,320.86
4305.0,308.44
4320.0,295.0
4333.0,281.16
4346.0,267.8
4360.0,254.45
4373.0,240.16
4386.0,225.55
4400.0,211.32
4413.0,196.58
4426.0,181.19
4440.0,166.49
4453.0,152.52
4466.0,138.05
4480.0,131.77
4493.0,181.39
4506.0,329.8
4519.0,491.47
4533.0,530.78
4546.0,454.3
4559.0,356.56
4573.0,304.0
4586.0,295.91
4599.0,244.51
4613.0,125.82
4626.0,46.6
4639.0,29.22
4653.0,-2.22
4666.0,-42.17
4679.0,-63.76
4692.0,-93.65
4706.0,-144.96
4719.0,-211.62
4732.0,-272.98
4746.0,-309.78
4759.0,-328.0
4772.0,-322.64
4786.0,-295.38
4799.0,-280.52
4812.0,-282.45
4826.0,-278.45
4839.0,-280.42
4852.0,-287.29
4866.0,-288.03
4879.0,-325.41
4892.0,-389.84
4905.0,-383.9
4919.0,-304.82
4932.0,-272.03
4945.0,-337.33
4959.0,-460.67
4973.0,-616.63
4986.0,-748.28
5000.0,-764.91
5013.0,-682.94
5026.0,-607.02
5040.0,-572.14
5053.0,-536.81
5066.0,-485.53
5080.0,-438.48
5093.0,-401.3
5106.0,-364.0
5120.0,-324.67
5133.0,-288.16
5146.0,-254.77
5159.0,-222.3
5173.0,-190.73
5186.0,-116.31
5199.0,106.08
5213.0,423.73
5226.0,552.73
5239.0,449.78
5253.0,400.09
5266.0,430.03
5279.0,368.72
5293.0,302.66
5306.0,323.25
5319.0,338.86
5332.0,329.52
5346.0,327.09
5359.0,306.11
5372.0,249.8
5386.0,155.86
5399.0,54.41
5412.0,2.84
5426.0,-6.2
5439.0,5.84
5452.0,4.69
5466.0,-93.18
5479.0,-203.0
5492.0,-159.63
5506.0,-71.57
5519.0,-112.23
5532.0,-195.63
5545.0,-185.51
5559.0,-128.06
5572.0,-125.03
5585.0,-173.13
5599.0,-205.87
5612.0,-190.05
5626.0,-156.89
5640.0,-148.77
5653.0,-133.39
5666.0,-73.18
5680.0,-22.71
5693.0,-29.53
5706.0,-63.37
5720.0,-107.91
5733.0,-170.96
5746.0,-196.6
5760.0,-157.38
5773.0,-124.53
5786.0,-110.0
5799.0,-76.51
5813.0,-53.5
5826.0,-70.38
5839.0,-92.63
5853.0,-70.34
5866.0,-24.77
5879.0,-26.99
5893.0,-67.32
5906.0,-51.23
5919.0,41.12
5933.0,100.99
5946.0,71.42
5959.0,30.2
5972.0,37.86
5986.0,73.86
5999.0,102.25
6012.0,111.09
6026.0,128.46
6039.0,162.7
6052.0,184.61
6066.0,202.68
6079.0,224.15
6092.0,212.04
6106.0,168.34
6119.0,134.18
6132.0,124.62
6146.0,134.79
6159.0,137.76
6172.0,120.74
6185.0,136.88
6199.0,195.23
6212.0,198.44
6225.0,110.1
6239.0,34.85
6252.0,40.72
6266.0,63.99
6280.0,64.48
6293.0,96.86
6306.0,160.56
6320.0,175.04
6333.0,132.88
6346.0,121.47
6360.0,177.31
6373.0,187.63
6386.0,90.34
6400.0,38.63
6413.0,103.77
6426.0,154.31
6439.0,144.59
6453.0,120.12
6466.0,76.92
6479.0,47.0
6493.0,65.73
6506.0,69.14
6519.0,19.68
6533.0,-11.02
6546.0,31.05
6559.0,75.9
6573.0,59.53
6586.0,68.77
6599.0,143.7
6612.0,169.46
6626.0,134.7
6639.0,127.39
6652.0,109.02
6666.0,31.84
6679.0,-24.2
6692.0,-1.18
6706.0,67.72
6719.0,111.99
6732.0,73.2
6746.0,-2.49
6759.0,-42.12
6772.0,-74.85
6786.0,-94.14
6799.0,-42.33
6812.0,6.03
6825.0,-36.45
6839.0,-93.04
6852.0,-90.13
6865.0,-55.71
6879.0,-3.0
6892.0,20.78
6905.0,-58.92
6920.0,-160.01
6933.0,-142.79
6946.0,-32.9
6960.0,31.26
6973.0,-18.57
6986.0,-98.74
7000.0,-109.37
7013.0,-64.08
7026.0,-14.48
7040.0,-8.4
7053.0,-57.46
7066.0,-134.95
7079.0,-308.1
7093.0,-545.45
7106.0,-593.27
7119.0,-438.26
7133.0,-339.17
7146.0,-342.77
7159.0,-317.45
7173.0,-250.94
7186.0,-205.72
7199.0,-181.97
7213.0,-101.41
7226.0,132.77
7239.0,442.75
7252.0,587.95
7266.0,520.09
7279.0,417.97
7292.0,385.63
7306.0,382.29
7319.0,363.4
7332.0,323.8
7346.0,242.42
7359.0,139.26
7372.0,94.27
7386.0,97.73
7399.0,64.72
7412.0,17.24
7426.0,23.67
7439.0,27.45
7452.0,-14.79
7465.0,-12.05
7479.0,44.13
7492.0,27.82
7505.0,-69.27
7519.0,-117.67
7532.0,-65.61
7545.0,-6.77
7559.0,-58.12
7573.0,-172.6
7586.0,-179.14
7600.0,-56.6
7613.0,17.87
7626.0,-72.81
7640.0,-183.64
7653.0,-142.6
7666.0,-59.66
7680.0,-84.59
7693.0,-140.81
7706.0,-126.11
7719.0,-93.43
7733.0,-110.11
7746.0,-125.12
7759.0,-92.49
7773.0,-53.67
7786.0,-33.09
7799.0,-23.21
7813.0,-36.07
7826.0,-59.04
7839.0,-64.75
7853.0,-59.71
7866.0,-48.09
7879.0,-38.07
7892.0,-68.03
7906.0,-117.98
7919.0,-93.82
7932.0,-10.93
7946.0,-5.71
7959.0,-80.18
7972.0,-112.4
7986.0,-100.02
7999.0,-107.67
8012.0,-103.22
8026.0,-73.88
8039.0,-71.12
8052.0,-62.17
8066.0,-11.35
8079.0,14.02
8092.0,-16.69
8105.0,-44.83
8119.0,-29.31
8132.0,-13.1
8145.0,-49.83
8159.0,-77.97
8172.0,-33.42
8185.0,7.35
8199.0,10.07
8213.0,40.1
8226.0,93.43
8240.0,123.89
8253.0,97.76
8266.0,24.23
8280.0,2.57
8293.0,50.1
8306.0,60.47
8320.0,36.72
8333.0,41.79
8346.0,39.63
8359.0,22.22
8373.0,32.71
8386.0,42.98
8399.0,47.23
8413.0,87.09
8426.0,103.57
8439.0,51.04
8453.0,16.39
8466.0,37.08
8479.0,56.36
8493.0,41.85
8506.0,2.55
8519.0,-21.66
8532.0,2.36
8546.0,35.97
8559.0,-10.46
8572.0,-90.85
8586.0,-31.9
8599.0,109.77
8612.0,127.99
8626.0,60.49
8639.0,53.21
8652.0,93.16
8666.0,112.99
8679.0,123.74
8692.0,129.82
8706.0,82.71
8719.0,13.95
8732.0,6.82
8745.0,42.39
8759.0,73.79
8772.0,87.79
8785.0,62.65
8799.0,22.04
8812.0,-10.73
8825.0,-48.99
8839.0,-45.76
8852.0,4.01
8866.0,1.4
8880.0,-52.13
8893.0,-40.15
8906.0,43.53
8920.0,71.98
8933.0,7.47
8946.0,-35.4
8960.0,6.74
8973.0,63.38
8986.0,72.59
8999.0,49.2
9013.0,41.34
9026.0,85.19
9039.0,125.92
9053.0,72.92
9066.0,-13.35
9079.0,-25.65
9093.0,0.67
9106.0,-22.65
9119.0,-159.58
9133.0,-368.26
9146.0,-454.93
9159.0,-361.7
9172.0,-264.07
9186.0,-248.44
9199.0,-235.24
9212.0,-187.82
9226.0,-145.89
9239.0,-122.83
9252.0,-98.34
9266.0,-60.62
9279.0,26.34
9292.0,239.01
9306.0,536.93
9319.0,693.13
9332.0,602.21
9346.0,452.38
9359.0,403.89
9372.0,387.22
9385.0,304.78
9399.0,224.89
9412.0,234.77
9425.0,208.87
9439.0,77.3
9452.0,19.79
9465.0,56.64
9479.0,41.31
9492.0,19.77
9505.0,68.06
9520.0,114.6
9533.0,120.36
9546.0,100.06
9560.0,37.26
9573.0,-42.12
9586.0,-74.87
9600.0,-66.79
9613.0,-72.36
9626.0,-83.84
9639.0,-52.16
9653.0,-26.4
9666.0,-76.72
9679.0,-145.42
9693.0,-183.72
9706.0,-216.77
9719.0,-240.91
9733.0,-253.93
9746.0,-251.77
9759.0,-203.05
9773.0,-120.98
9786.0,-60.75
9799.0,-64.79
9812.0,-122.54
9826.0,-155.85
9839.0,-128.97
9852.0,-124.72
9866.0,-192.56
9879.0,-232.52
9892.0,-178.7
9906.0,-129.15
9919.0,-128.95
9932.0,-98.17
9946.0,-42.84
9959.0,-40.95
9972.0,-93.82
9986.0,-135.6
9999.0,-111.23
10012.0,-46.91
10025.0,-11.9
10039.0,-20.5
10052.0,-68.18
10065.0,-136.39
10079.0,-156.0
10092.0,-127.54
10105.0,-120.55
10119.0,-117.6
10132.0,-70.81
10145.0,-21.2
10159.0,-31.8
10173.0,-72.98
10186.0,-76.37
10200.0,-66.28
10213.0,-78.5
10226.0,-41.18
10240.0,64.54
10253.0,108.15
10266.0,43.86
10279.0,-6.25
10293.0,18.81
10306.0,25.04
10319.0,-63.06
10333.0,-119.2
10346.0,-0.15
10359.0,146.06
10373.0,126.81
10386.0,34.68
10399.0,24.6
10413.0,75.78
10426.0,97.11
10439.0,64.45
10452.0,23.25
10466.0,29.23
10479.0,87.46
10492.0,128.09
10506.0,112.55
10519.0,109.08
10532.0,127.72
10546.0,94.44
10559.0,49.35
10572.0,56.4
10586.0,46.74
10599.0,-3.87
10612.0,-18.1
10626.0,2.54
10639.0,22.63
10652.0,62.41
10665.0,102.27
10679.0,102.38
10692.0,72.04
10705.0,36.65
10719.0,12.25
10732.0,-3.98
10745.0,-0.15
10759.0,37.2
10772.0,62.05
10785.0,35.9
10799.0,8.21
10813.0,36.3
10826.0,78.21
10840.0,62.23
10853.0,16.85
10866.0,3.55
10880.0,12.81
10893.0,30.01
10906.0,53.66
10919.0,45.29
10933.0,20.39
10946.0,58.32
10959.0,126.42
10973.0,114.11
10986.0,32.89
10999.0,-10.82
11013.0,32.46
11026.0,110.07
11039.0,138.09
11053.0,112.39
11066.0,97.97
11079.0,130.51
11092.0,137.04
11106.0,-41.38
11119.0,-354.83
11132.0,-487.09
11146.0,-364.22
11159.0,-248.27
11172.0,-247.07
11186.0,-241.0
11199.0,-185.89
11212.0,-140.32
11226.0,-120.52
11239.0,-98.02
11252.0,-67.16
11266.0,-41.05
11279.0,-20.97
11292.0,-1.06
11305.0,18.54
11319.0,35.59
11332.0,50.84
11345.0,103.02
11359.0,276.2
11372.0,548.27
11385.0,739.05
11399.0,750.31
11412.0,685.49
11425.0,635.0
11439.0,554.15
11452.0,433.34
11466.0,348.55
11480.0,301.18
11493.0,209.8
11506.0,80.33
11520.0,45.81
11533.0,114.12
11546.0,106.99
11559.0,6.99
11573.0,-39.14
11586.0,-43.88
11599.0,-85.52
11613.0,-97.2
11626.0,-53.77
11639.0,-71.96
11653.0,-148.81
11666.0,-158.04
11679.0,-119.36
11693.0,-140.61
11706.0,-188.89
11719.0,-179.83
11732.0,-181.23
11746.0,-282.7
11759.0,-386.2
11772.0,-353.87
11786.0,-253.73
11799.0,-216.03
11812.0,-194.63
11826.0,-122.34
11839.0,-60.05
11852.0,-76.91
11866.0,-172.92
11879.0,-287.98
11892.0,-345.33
11906.0,-314.73
11919.0,-225.57
11932.0,-145.3
11945.0,-130.88
11959.0,-167.74
11972.0,-200.65
11985.0,-208.16
11999.0,-176.52
12012.0,-109.96
12025.0,-76.67
12039.0,-106.87
12052.0,-125.14
12065.0,-83.69
12079.0,-54.56
12092.0,-83.95
12105.0,-103.91
12120.0,-67.82
12133.0,-21.23
12146.0,-61.9
12160.0,-192.53
12173.0,-228.0
12186.0,-103.37
12199.0,2.06
12213.0,16.07
12226.0,10.74
12239.0,-7.12
12253.0,-24.37
12266.0,22.02
12279.0,99.13
12293.0,116.24
12306.0,96.69
12319.0,109.25
12333.0,125.73
12346.0,104.9
12359.0,82.02
12372.0,85.46
12386.0,92.51
12399.0,87.62
12412.0,64.16
12426.0,19.69
12439.0,-13.42
12452.0,-1.74
12466.0,38.33
12479.0,51.48
12492.0,34.67
12506.0,45.5
12519.0,65.49
12532.0,32.99
12546.0,-16.69
12559.0,-20.6
12572.0,6.15
12585.0,33.57
12599.0,67.33
12612.0,82.98
12625.0,69.87
12639.0,96.42
12652.0,157.17
12665.0,152.26
12679.0,90.23
12692.0,52.14
12705.0,50.05
12719.0,64.42
12732.0,93.04
12745.0,136.59
12759.0,146.19
12773.0,89.68
12786.0,58.37
12800.0,97.92
12813.0,108.56
12826.0,55.77
12839.0,32.06
12853.0,68.69
12866.0,72.41
12879.0,3.93
12893.0,-48.93
12906.0,-40.46
12919.0,-7.55
12933.0,41.04
12946.0,98.73
12959.0,100.99
12973.0,19.37
12986.0,-51.6
12999.0,-33.48
13012.0,3.32
13026.0,-13.29
13039.0,-62.58
13052.0,-110.44
13066.0,-137.46
13079.0,-207.25
13092.0,-353.19
13106.0,-408.48
13119.0,-307.18
13132.0,-218.25
13146.0,-208.61
13159.0,-192.34
13172.0,-144.07
13186.0,-101.69
13199.0,-45.79
13212.0,103.76
13225.0,349.88
13239.0,528.72
13252.0,521.49
13265.0,480.27
13279.0,547.34
13292.0,595.06
13305.0,544.15
13319.0,467.95
13332.0,324.81
13345.0,127.68
13359.0,60.16
13372.0,102.8
13385.0,80.04
13399.0,11.74
13413.0,-10.83
13426.0,-5.55
13440.0,-8.83
13453.0,-30.52
13466.0,-67.04
13479.0,-110.39
13493.0,-145.01
13506.0,-136.66
13519.0,-90.03
13533.0,-65.24
13546.0,-85.98
13559.0,-117.86
13573.0,-140.29
13586.0,-141.91
13599.0,-107.31
13613.0,-59.65
13626.0,-38.6
13639.0,-54.73
13652.0,-75.56
13666.0,-71.84
13679.0,-80.88
13692.0,-129.32
13706.0,-154.39
13719.0,-121.82
13732.0,-99.72
13746.0,-113.59
13759.0,-101.47
13772.0,-75.23
13786.0,-102.93
13799.0,-134.45
13812.0,-106.83
13826.0,-85.87
13839.0,-96.4
13852.0,-77.76
13865.0,-51.23
13879.0,-70.62
13892.0,-101.27
13905.0,-87.98
13919.0,-64.47
13932.0,-126.71
13945.0,-218.4
13959.0,-158.71
13972.0,-1.93
13985.0,40.88
13999.0,-26.33
14012.0,-57.19
14025.0,-33.38
14039.0,-36.29
14052.0,-56.49
14066.0,-44.2
14080.0,-52.7
14093.0,-84.04
14106.0,-38.27
14119.0,43.54
14133.0,67.3
14146.0,84.96
14159.0,111.92
14173.0,89.68
14186.0,34.03
14199.0,-27.97
14213.0,-80.09
14226.0,-87.32
14239.0,-56.01
14253.0,-11.16
14266.0,36.65
14279.0,65.8
14292.0,84.26
14306.0,110.81
14319.0,88.89
14332.0,4.86
14346.0,-32.73
14359.0,18.74
14372.0,73.57
14386.0,50.83
14399.0,-16.2
14412.0,-17.05
14426.0,43.33
14439.0,49.3
14452.0,-1.26
14466.0,-18.86
14479.0,3.08
14492.0,22.97
14505.0,37.65
14519.0,72.72
14532.0,113.89
14545.0,90.7
14559.0,14.63
14572.0,-23.05
14585.0,-19.5
14599.0,-29.73
14612.0,-53.8
14625.0,-50.78
14639.0,-14.89
14652.0,-1.1
14665.0,-14.21
14679.0,1.02
14692.0,28.78
14705.0,23.45
14720.0,-22.48
14733.0,-109.11
14746.0,-239.49
14759.0,-374.93
14773.0,-410.27
14786.0,-325.53
14799.0,-241.7
14813.0,-214.96
14826.0,-189.94
14839.0,-142.36
14853.0,-99.82
14866.0,-71.05
14879.0,-19.69
14893.0,120.48
14906.0,345.88
14919.0,510.93
14932.0,504.63
14946.0,433.23
14959.0,453.19
14972.0,524.89
14986.0,537.0
14999.0,518.38
15012.0,516.79
15026.0,478.19
15039.0,369.53
15052.0,254.71
15066.0,196.4
15079.0,186.2
15092.0,178.52
15106.0,118.27
15119.0,25.58
15132.0,2.98
15145.0,29.83
15159.0,-10.6
15172.0,-87.72
15185.0,-91.78
15199.0,-32.71
15212.0,-12.66
15225.0,-79.72
15239.0,-164.22
15252.0,-200.31
15265.0,-216.53
15279.0,-233.15
15292.0,-220.17
15305.0,-174.23
15319.0,-136.3
15332.0,-126.49
15345.0,-118.75
15358.0,-122.58
15373.0,-176.26
15386.0,-211.62
15399.0,-135.11
15413.0,-45.9
15426.0,-71.94
15439.0,-126.62
15453.0,-119.15
15466.0,-106.08
15479.0,-114.06
15493.0,-116.7
15506.0,-119.64
15519.0,-135.13
15533.0,-164.66
15546.0,-217.03
15559.0,-283.01
15572.0,-283.31
15586.0,-168.95
15599.0,-47.36
15612.0,-36.93
15626.0,-104.31
15639.0,-128.53
15652.0,-54.17
15666.0,35.08
15679.0,66.34
15692.0,76.33
15706.0,82.02
15719.0,69.07
15732.0,44.71
15746.0,20.14
15759.0,35.06
15772.0,80.85
15785.0,88.95
15799.0,78.62
15812.0,107.75
15825.0,127.22
15839.0,61.97
15852.0,-3.57
15865.0,54.71
15879.0,148.08
15892.0,154.07
15905.0,131.86
15919.0,141.12
15932.0,135.03
15945.0,99.41
15959.0,95.6
15972.0,120.85
15985.0,86.85
15998.0,5.67
16013.0,-18.24
16026.0,10.94
16039.0,13.97
16053.0,5.89
16066.0,21.24
16079.0,-14.69
16093.0,-99.65
16106.0,-111.4
16119.0,-70.4
16133.0,-80.78
16146.0,-121.11
16159.0,-114.76
16173.0,-65.03
16186.0,-41.7
16199.0,-46.63
16212.0,-4.74
16226.0,64.31
16239.0,54.38
16252.0,-13.77
16266.0,-25.91
16279.0,-20.0
16292.0,-97.11
16306.0,-173.22
16319.0,-130.76
16332.0,-24.56
16346.0,55.93
16359.0,95.32
16372.0,88.34
16386.0,40.95
16399.0,4.12
16412.0,18.05
16425.0,55.61
16439.0,64.51
16452.0,35.75
16465.0,10.18
16479.0,12.63
16492.0,3.86
16505.0,-27.97
16519.0,-34.14
16532.0,-20.97
16545.0,-19.99
16559.0,9.38
16572.0,87.4
16585.0,124.71
16599.0,48.66
16612.0,-54.58
16625.0,-53.12
16638.0,21.89
16652.0,48.27
16666.0,0.05
16679.0,-72.07
16693.0,-121.76
16706.0,-186.69
16719.0,-331.04
16733.0,-441.33
16746.0,-387.53
16759.0,-276.46
16773.0,-237.0
16786.0,-226.21
16799.0,-185.13
16813.0,-137.07
16826.0,-106.67
16839.0,-81.46
16852.0,-51.64
16866.0,-23.46
16879.0,0.39
16892.0,22.79
16906.0,50.07
16919.0,134.51
16932.0,355.97
16946.0,635.77
16959.0,754.88
16972.0,680.71
16986.0,567.63
16999.0,475.83
17012.0,399.6
17026.0,366.41
17039.0,357.69
17052.0,342.83
17065.0,334.15
17079.0,299.35
17092.0,210.16
17105.0,147.71
17119.0,140.57
17132.0,87.6
17145.0,-11.49
17159.0,-37.33
17172.0,7.97
17185.0,9.3
17199.0,-40.55
17212.0,-66.16
17225.0,-76.53
17239.0,-114.5
17252.0,-151.04
17265.0,-140.5
17278.0,-120.4
17292.0,-146.35
17305.0,-185.59
17319.0,-193.64
17333.0,-180.44
17346.0,-170.02
17359.0,-171.83
17373.0,-168.92
17386.0,-134.8
17399.0,-103.2
17413.0,-143.51
17426.0,-197.67
17439.0,-166.79
17453.0,-116.6
17466.0,-116.0
17479.0,-118.21
17492.0,-115.1
17506.0,-129.61
17519.0,-124.3
17532.0,-89.97
17546.0,-88.46
17559.0,-116.11
17572.0,-105.74
17586.0,-66.67
17599.0,-54.68
17612.0,-64.57
17626.0,-54.3
17639.0,-37.89
17652.0,-46.54
17666.0,-53.91
17679.0,-63.59
17692.0,-111.11
17705.0,-164.78
17719.0,-165.88
17732.0,-94.2
17745.0,-5.53
17759.0,29.4
17772.0,34.95
17785.0,15.72
17799.0,-74.12
17812.0,-160.22
17825.0,-142.06
17839.0,-60.02
17852.0,4.14
17865.0,31.14
17879.0,30.38
17892.0,33.84
17905.0,77.79
17918.0,103.1
17932.0,42.96
17945.0,-23.67
17958.0,-14.96
17973.0,47.54
17986.0,113.07
17999.0,125.83
18013.0,87.17
18026.0,56.29
18039.0,47.36
18053.0,61.89
18066.0,90.37
18079.0,56.58
18093.0,-26.94
18106.0,-42.35
18119.0,-6.4
18132.0,1.11
18146.0,9.21
18159.0,31.29
18172.0,42.58
18186.0,64.13
18199.0,65.63
18212.0,2.81
18226.0,-29.49
18239.0,33.37
18252.0,41.97
18266.0,-144.86
18279.0,-391.68
18292.0,-482.16
18306.0,-438.45
18319.0,-370.51
18332.0,-255.94
18345.0,-76.28
18359.0,83.63
18372.0,159.49
18385.0,178.65
18399.0,183.03
18412.0,199.49
18425.0,242.85
18439.0,296.65
18452.0,351.87
18465.0,370.78
18479.0,236.43
18492.0,-91.61
18505.0,-394.56
18519.0,-409.91
18532.0,-242.79
18545.0,-169.75
18558.0,-188.08
18572.0,-161.28
18585.0,-47.68
18598.0,207.97
18612.0,552.62
18626.0,700.87
18639.0,555.54
18653.0,383.66
18666.0,368.8
18679.0,411.13
18693.0,371.8
18706.0,259.14
18719.0,194.54
18733.0,222.67
18746.0,225.86
18759.0,155.88
18772.0,110.74
18786.0,93.79
18799.0,55.38
18812.0,44.09
18826.0,52.49
18839.0,1.91
18852.0,-71.87
18866.0,-98.93
18879.0,-103.98
18892.0,-93.73
18906.0,-47.4
18919.0,-27.93
18932.0,-81.79
18946.0,-133.75
18959.0,-133.34
18972.0,-128.78
18985.0,-137.14
18999.0,-131.49
19012.0,-108.71
19025.0,-71.04
19039.0,-54.22
19052.0,-105.03
19065.0,-150.54
19079.0,-126.11
19092.0,-121.96
19105.0,-140.63
19119.0,-90.11
19132.0,-72.29
19145.0,-160.89
19159.0,-170.43
19172.0,-58.69
19185.0,-17.37
19198.0,-66.41
19212.0,-80.93
19225.0,-51.92
19238.0,-41.71
19252.0,-60.31
19266.0,-81.32
19279.0,-88.79
19293.0,-57.57
19306.0,8.6
19319.0,41.77
19333.0,2.06
19346.0,-66.0
19359.0,-93.73
19373.0,-87.66
19386.0,-100.1
19399.0,-113.82
19412.0,-103.33
19426.0,-93.57
19439.0,-76.02
19452.0,-38.96
19466.0,-16.81
19479.0,-10.19
19492.0,7.15
19506.0,25.76
19519.0,29.51
19532.0,18.12
19546.0,5.51
19559.0,-2.19
19572.0,-25.58
19586.0,-38.34
19599.0,9.77
19612.0,60.79
19625.0,44.61
19639.0,15.29
19652.0,14.62
19665.0,8.44
19679.0,16.35
19692.0,59.11
19705.0,66.04
19719.0,35.56
19732.0,49.06
19745.0,68.64
19759.0,46.37
19772.0,50.78
19785.0,60.02
19799.0,6.35
19812.0,-25.7
19825.0,30.43
19838.0,84.79
19852.0,52.2
19865.0,-18.8
19878.0,-40.36
19892.0,-33.48
19905.0,-26.83
19919.0,36.6
19933.0,111.28
19946.0,84.91
19959.0,-6.95
19973.0,-51.03
19986.0,-10.3
19999.0,31.21
20013.0,3.27
20026.0,-23.4
20039.0,6.86
20052.0,35.49
20066.0,27.05
20079.0,20.11
20092.0,25.78
20106.0,17.34
20119.0,4.67
20132.0,15.81
20146.0,58.0
20159.0,106.54
20172.0,101.58
20186.0,39.48
20199.0,-0.73
20212.0,-4.72
20226.0,-32.83
20239.0,-70.22
20252.0,-46.59
20265.0,17.48
20279.0,38.57
20292.0,26.27
20305.0,67.31
20319.0,121.61
20332.0,-4.0
20345.0,-312.95
20359.0,-496.41
20372.0,-408.17
20385.0,-273.51
20399.0,-253.2
20412.0,-254.88
20425.0,-205.93
20439.0,-154.04
20452.0,-128.94
20465.0,-73.06
20478.0,98.49
20492.0,342.99
20505.0,495.87
20518.0,508.96
20532.0,463.46
20545.0,414.77
20558.0,396.91
20573.0,389.08
20586.0,326.81
20599.0,231.95
20613.0,156.6
20626.0,111.21
20639.0,113.55
20653.0,165.91
20666.0,203.51
20679.0,127.67
20692.0,-28.83
20706.0,-109.02
20719.0,-103.89
20732.0,-104.77
20746.0,-94.69
20759.0,-83.08
20772.0,-110.12
20786.0,-93.85
20799.0,-30.74
20812.0,-61.84
20826.0,-155.99
20839.0,-136.83
20852.0,-38.13
20866.0,-38.85
20879.0,-109.09
20892.0,-120.71
20905.0,-104.75
20919.0,-86.94
20932.0,-30.61
20945.0,3.24
20959.0,-52.73
20972.0,-125.59
20985.0,-91.46
20999.0,9.21
21012.0,18.38
21025.0,-38.42
21039.0,-30.87
21052.0,-6.38
21065.0,-44.49
21079.0,-77.65
21092.0,-53.01
21105.0,-33.13
21118.0,-56.68
21132.0,-71.14
21145.0,-44.37
21158.0,-4.45
21172.0,8.95
21185.0,-13.55
21198.0,-27.77
21212.0,-18.71
21226.0,-47.35
21239.0,-129.65
21253.0,-175.72
21266.0,-133.3
21279.0,-89.32
21293.0,-101.94
21306.0,-90.3
21319.0,-36.31
21332.0,-46.71
21346.0,-122.35
21359.0,-146.97
21372.0,-100.59
21386.0,-58.14
21399.0,-53.9
21412.0,-63.06
21426.0,-48.24
21439.0,-7.04
21452.0,18.85
21466.0,-1.97
21479.0,-43.3
21492.0,-37.97
21506.0,35.45
21519.0,96.86
21532.0,71.29
21545.0,7.56
21559.0,-16.78
21572.0,-1.45
21585.0,23.1
21599.0,19.21
21612.0,-24.16
21625.0,-49.13
21639.0,-26.12
21652.0,24.07
21665.0,90.93
21679.0,118.89
21692.0,67.98
21705.0,19.51
21719.0,42.3
21732.0,84.01
21745.0,80.85
21758.0,60.37
21772.0,63.1
21785.0,58.45
21798.0,33.4
21812.0,40.84
21825.0,90.61
21838.0,88.47
21852.0,-12.53
21866.0,-69.1
21879.0,19.68
21893.0,105.05
21906.0,28.46
21919.0,-172.21
21933.0,-344.57
21946.0,-376.12
21959.0,-299.91
21972.0,-229.74
21986.0,-202.75
21999.0,-176.63
22012.0,-134.58
22026.0,-97.36
22039.0,-71.05
22052.0,-45.16
22066.0,-17.06
22079.0,8.09
22092.0,29.33
22106.0,49.43
22119.0,68.81
22132.0,97.58
22146.0,198.56
22159.0,449.02
22172.0,757.52
22185.0,903.22
22199.0,861.35
22212.0,789.97
22225.0,722.75
22239.0,585.53
22252.0,403.11
22265.0,288.2
22279.0,274.38
22292.0,275.53
22305.0,224.11
22319.0,131.05
22332.0,30.03
22345.0,-45.32
22359.0,-82.12
22372.0,-78.76
22385.0,-47.24
22398.0,-41.14
22412.0,-93.45
22425.0,-177.36
22438.0,-232.08
22452.0,-228.9
22465.0,-214.02
22478.0,-208.29
22492.0,-189.29
22505.0,-180.86
22519.0,-180.68
22533.0,-136.59
22546.0,-104.86
22559.0,-164.46
22573.0,-229.93
22586.0,-222.67
22599.0,-186.23
22612.0,-157.36
22626.0,-141.78
22639.0,-130.93
22652.0,-132.85
22666.0,-159.82
22679.0,-159.33
22692.0,-112.75
22706.0,-94.67
22719.0,-155.97
22732.0,-240.41
22746.0,-228.46
22759.0,-121.6
22772.0,-75.12
22786.0,-117.94
22799.0,-109.11
22812.0,-36.48
22825.0,-26.74
22839.0,-86.16
22852.0,-107.5
22865.0,-84.2
22879.0,-85.43
22892.0,-100.91
22905.0,-93.71
22919.0,-72.82
22932.0,-55.75
22945.0,-55.61
22959.0,-66.66
22972.0,-66.31
22985.0,-64.95
22999.0,-81.12
23012.0,-84.05
23025.0,-50.66
23038.0,-11.95
23052.0,6.6
23065.0,-4.37
23078.0,-47.84
23092.0,-68.31
23105.0,-15.53
23118.0,36.7
23132.0,7.38
23145.0,-42.64
23158.0,-37.52
23173.0,1.16
23186.0,29.09
23199.0,25.77
23213.0,-2.84
23226.0,-20.25
23239.0,-0.41
23252.0,36.51
23266.0,47.62
23279.0,30.51
23292.0,14.73
23306.0,3.68
23319.0,-1.79
23332.0,10.73
23346.0,34.47
23359.0,47.23
23372.0,45.37
23386.0,54.14
23399.0,79.1
23412.0,99.67
23426.0,106.05
23439.0,89.49
23452.0,51.66
23465.0,39.96
23479.0,78.52
23492.0,86.01
23505.0,27.89
23519.0,23.74
23532.0,101.57
23545.0,133.84
23559.0,107.42
23572.0,93.59
23585.0,80.36
23599.0,70.62
23612.0,91.12
23625.0,100.17
23639.0,85.82
23652.0,73.66
23665.0,20.48
23678.0,-35.48
23692.0,23.62
23705.0,115.05
23718.0,103.23
23732.0,44.18
23745.0,18.62
23758.0,41.69
23772.0,73.66
23785.0,-12.54
23798.0,-257.48
23812.0,-458.12
23826.0,-428.23
23839.0,-290.02
23853.0,-236.2
23866.0,-236.05
23879.0,-197.96
23892.0,-142.68
23906.0,-110.14
23919.0,-87.34
23932.0,-57.28
23946.0,-26.67
23959.0,-2.48
23972.0,18.88
23986.0,40.64
23999.0,60.99
24012.0,78.54
24026.0,93.72
24039.0,107.04
24052.0,119.06
24066.0,130.02
24079.0,139.73
24092.0,194.43
24105.0,399.44
24119.0,718.86
24132.0,912.54
24145.0,877.84
24159.0,771.98
24172.0,697.26
24185.0,581.1
24199.0,416.67
24212.0,344.49
24225.0,405.58
24239.0,461.31
24252.0,419.99
24265.0,326.59
24279.0,228.17
24292.0,112.62
24305.0,-23.05
24318.0,-135.97
24332.0,-199.59
24345.0,-251.79
24358.0,-307.5
24372.0,-300.38
24385.0,-219.75
24398.0,-171.76
24412.0,-200.88
24425.0,-228.86
24438.0,-224.79
24452.0,-241.81
24465.0,-265.84
24479.0,-250.23
24493.0,-280.0
24506.0,-391.83
24519.0,-424.46
24532.0,-323.42
24546.0,-242.67
24559.0,-285.27
24572.0,-377.95
24586.0,-392.84
24599.0,-335.76
24612.0,-313.02
24626.0,-330.91
24639.0,-309.48
24652.0,-265.8
24666.0,-256.13
24679.0,-246.61
24692.0,-227.89
24706.0,-221.03
24719.0,-189.88
24732.0,-145.2
24745.0,-143.8
24759.0,-177.75
24772.0,-217.14
24785.0,-238.11
24799.0,-187.52
24812.0,-75.99
24825.0,-9.95
24839.0,-18.72
24852.0,-16.91
24865.0,47.12
24879.0,121.98
24892.0,120.34
24905.0,47.57
24919.0,8.29
24932.0,65.26
24945.0,162.96
24958.0,203.7
24972.0,169.55
24985.0,108.65
24998.0,59.12
25012.0,73.25
25025.0,158.26
25038.0,207.07
25052.0,163.46
25065.0,92.21
25078.0,30.06
25092.0,-20.93
25105.0,-19.3
25119.0,43.55
25133.0,105.88
25146.0,127.75
25159.0,107.01
25172.0,38.24
25186.0,-29.51
25199.0,-25.67
25212.0,19.2
25226.0,55.93
25239.0,98.69
25252.0,131.19
25266.0,100.4
25279.0,26.72
25292.0,2.48
25306.0,45.41
25319.0,65.88
25332.0,1.98
25346.0,-74.42
25359.0,-42.8
25372.0,59.74
25385.0,86.6
25399.0,17.74
25412.0,-28.11
25425.0,13.37
25439.0,56.02
25452.0,35.37
25465.0,21.69
25479.0,48.2
25492.0,50.19
25505.0,11.85
25519.0,-12.43
25532.0,5.43
25545.0,42.88
25559.0,61.99
25572.0,40.63
25585.0,-7.84
25598.0,-33.41
25612.0,2.03
25625.0,50.31
25638.0,52.09
25652.0,22.16
25665.0,-27.27
25678.0,-67.35
25692.0,-50.74
25705.0,-26.96
25718.0,-47.83
25732.0,-58.48
25745.0,-74.73
25758.0,-238.22
25773.0,-472.29
25786.0,-495.73
25799.0,-335.74
25812.0,-249.38
25826.0,-255.11
25839.0,-225.78
25852.0,-160.89
25866.0,-119.18
25879.0,-95.77
25892.0,-63.89
25906.0,-27.93
25919.0,0.4
25932.0,24.32
25946.0,48.14
25959.0,70.2
25972.0,110.89
25986.0,236.7
25999.0,482.08
26012.0,747.68
26025.0,877.13
26039.0,841.39
26052.0,764.41
26065.0,733.17
26079.0,695.97
26092.0,610.7
26105.0,523.84
26119.0,453.98
26132.0,365.2
26145.0,243.8
26159.0,93.68
26172.0,-38.66
26185.0,-63.93
26199.0,-5.35
26212.0,19.91
26225.0,-16.91
26238.0,-70.91
26252.0,-125.88
26265.0,-173.62
26278.0,-199.56
26292.0,-203.93
26305.0,-173.79
26318.0,-123.35
26332.0,-121.44
26345.0,-174.61
26358.0,-206.92
26372.0,-191.07
26385.0,-200.66
26398.0,-281.55
26412.0,-341.89
26426.0,-309.29
26439.0,-257.9
26452.0,-263.95
26466.0,-295.79
26479.0,-272.16
26492.0,-200.17
26506.0,-162.43
26519.0,-163.6
26532.0,-188.23
26546.0,-242.46
26559.0,-259.14
26572.0,-200.05
26586.0,-125.66
26599.0,-85.8
26612.0,-82.65
26626.0,-102.29
26639.0,-116.8
26652.0,-92.54
26665.0,-63.36
26679.0,-89.69
26692.0,-118.52
26705.0,-90.26
26719.0,-64.87
26732.0,-80.54
26745.0,-97.73
26759.0,-92.55
26772.0,-64.12
26785.0,-45.89
26799.0,-68.77
26812.0,-76.76
26825.0,-43.3
26839.0,-35.43
26852.0,-37.2
26865.0,15.71
26878.0,59.69
26892.0,14.09
26905.0,-53.76
26918.0,-20.56
26932.0,79.53
26945.0,73.22
26958.0,-33.11
26972.0,-32.53
26985.0,90.5
26998.0,154.28
27012.0,122.4
27025.0,100.84
27038.0,114.77
27052.0,87.58
27065.0,14.22
27079.0,11.67
27092.0,90.63
27106.0,121.85
27119.0,95.27
27132.0,91.47
27146.0,104.06
27159.0,107.46
27172.0,121.31
27186.0,142.75
27199.0,124.29
27212.0,45.57
27226.0,-21.03
27239.0,-12.2
27252.0,25.41
27266.0,57.38
27279.0,96.11
27292.0,112.31
27305.0,101.31
27319.0,72.78
27332.0,10.47
27345.0,-11.42
27359.0,51.63
27372.0,73.54
27385.0,20.02
27399.0,19.57
27412.0,73.17
27425.0,63.12
27439.0,-7.23
27452.0,-34.97
27465.0,3.51
27479.0,35.77
27492.0,21.7
27505.0,2.99
27518.0,15.79
27532.0,27.7
27545.0,0.66
27558.0,-35.42
27572.0,-28.65
27585.0,6.53
27598.0,17.4
27612.0,15.22
27625.0,42.64
27638.0,65.89
27652.0,41.48
27665.0,18.65
27678.0,18.48
27692.0,-74.9
27705.0,-290.41
27719.0,-419.81
27732.0,-347.77
27746.0,-238.27
27759.0,-215.51
27772.0,-210.21
27786.0,-166.85
27799.0,-121.96
27812.0,-98.56
27826.0,-77.63
27839.0,-49.88
27852.0,-24.51
27866.0,-4.88
27879.0,13.67
27892.0,31.94
27906.0,47.95
27919.0,62.21
27932.0,75.75
27945.0,88.01
27959.0,98.3
27972.0,107.08
27985.0,115.05
27999.0,167.45
28012.0,360.9
28025.0,666.42
28039.0,881.34
28052.0,892.69
28065.0,798.48
28079.0,724.27
28092.0,669.48
28105.0,587.02
28119.0,495.65
28132.0,425.69
28145.0,364.79
28158.0,299.27
28172.0,223.41
28185.0,118.13
28198.0,-11.88
28212.0,-127.53
28225.0,-201.19
28238.0,-215.56
28252.0,-192.98
28265.0,-208.26
28278.0,-263.57
28292.0,-289.81
28305.0,-289.14
28318.0,-296.86
28332.0,-300.93
28345.0,-289.39
28358.0,-283.09
28372.0,-307.48
28386.0,-336.48
28399.0,-326.68
28412.0,-314.23
28426.0,-343.71
28439.0,-366.16
28452.0,-338.74
28466.0,-285.92
28479.0,-238.98
28492.0,-250.18
28506.0,-312.64
28519.0,-318.27
28532.0,-258.07
28546.0,-212.95
28559.0,-208.38
28572.0,-236.39
28585.0,-253.55
28599.0,-228.44
28612.0,-209.62
28625.0,-209.26
28639.0,-179.13
28652.0,-145.82
28665.0,-166.77
28679.0,-210.09
28692.0,-212.37
28705.0,-159.61
28719.0,-75.76
28732.0,-18.5
28745.0,-30.53
28759.0,-49.05
28772.0,-9.79
28785.0,33.29
28798.0,33.27
28812.0,-2.46
28825.0,-69.64
28838.0,-111.9
28852.0,-68.21
28865.0,-8.73
28878.0,-21.47
28892.0,-27.88
28905.0,53.87
28918.0,116.23
28932.0,72.97
28945.0,8.86
28958.0,1.6
28972.0,46.06
28985.0,104.04
28998.0,126.88
29011.0,107.64
29026.0,76.77
29039.0,79.68
29052.0,128.46
29066.0,133.02
29079.0,67.2
29092.0,67.69
29106.0,147.21
29119.0,168.87
29132.0,154.89
29146.0,184.87
29159.0,166.03
29172.0,71.75
29186.0,35.39
29199.0,52.46
29212.0,45.67
29225.0,59.5
29239.0,80.18
29252.0,61.4
29265.0,74.25
29279.0,123.23
29292.0,131.74
29305.0,104.94
29319.0,76.54
29332.0,78.65
29345.0,121.75
29359.0,133.75
29372.0,93.31
29385.0,82.47
29399.0,127.58
29412.0,155.51
29425.0,78.54
29438.0,-42.9
29452.0,-37.44
29465.0,2.57
29478.0,-152.72
29492.0,-365.61
29505.0,-368.63
29518.0,-240.64
29532.0,-182.97
29545.0,-183.31
29558.0,-151.82
29572.0,-99.9
29585.0,-68.02
29598.0,-48.89
29612.0,-24.0
29625.0,4.2
29638.0,27.82
29651.0,47.19
29666.0,65.25
29679.0,112.48
29692.0,280.32
29706.0,582.27
29719.0,817.24
29732.0,841.91
29746.0,790.07
29759.0,771.16
29772.0,700.21
29786.0,542.91
29799.0,410.98
29812.0,377.9
29826.0,384.41
29839.0,350.79
29852.0,254.51
29865.0,130.14
29879.0,54.62
29892.0,30.79
29905.0,-22.03
29919.0,-98.41
29932.0,-147.55
29945.0,-189.59
29959.0,-205.76
29972.0,-167.53
29985.0,-147.54
29999.0,-181.64
30012.0,-231.31
30025.0,-279.68
30039.0,-293.19
30052.0,-256.82
30065.0,-242.43
30078.0,-278.25
30092.0,-311.57
30105.0,-329.01
30118.0,-333.72
30132.0,-316.09
30145.0,-296.68
30158.0,-266.51
30172.0,-188.49
30185.0,-119.41
30198.0,-129.04
30212.0,-166.01
30225.0,-177.8
30238.0,-169.2
30252.0,-168.07
30265.0,-236.89
30278.0,-308.29
30291.0,-237.2
30305.0,-126.82
30319.0,-145.05
30332.0,-194.33
30346.0,-152.38
30359.0,-110.71
30372.0,-155.44
30386.0,-195.3
30399.0,-133.45
30412.0,-23.42
30426.0,21.04
30439.0,-21.72
30452.0,-74.2
30466.0,-68.56
30479.0,-21.81
30492.0,-11.78
30505.0,-53.78
30519.0,-70.09
30532.0,-43.68
30545.0,-42.79
30559.0,-76.0
30572.0,-95.6
30585.0,-77.48
30599.0,-33.39
30612.0,-9.21
30625.0,-24.51
30639.0,-38.76
30652.0,-27.73
30665.0,-19.77
30679.0,-19.9
30692.0,14.24
30705.0,63.39
30718.0,73.99
30732.0,69.11
30745.0,66.47
30758.0,51.79
30772.0,53.7
30785.0,86.23
30798.0,106.65
30812.0,102.35
30825.0,108.31
30838.0,110.84
30852.0,73.85
30865.0,56.24
30878.0,112.45
30892.0,153.7
30905.0,107.27
30918.0,47.45
30931.0,44.21
30945.0,58.13
30958.0,41.02
30972.0,23.55
30986.0,54.8
30999.0,117.3
31012.0,148.78
31026.0,139.71
31039.0,149.38
31052.0,180.41
31066.0,167.1
31079.0,103.36
31092.0,46.9
31106.0,37.52
31119.0,45.81
31132.0,22.7
31145.0,-7.25
31159.0,-0.07
31172.0,33.2
31185.0,29.92
31199.0,-31.59
31212.0,-35.82
31225.0,52.84
31239.0,58.58
31252.0,-46.17
31265.0,-60.72
31279.0,-16.49
31292.0,-160.44
31305.0,-395.32
31319.0,-406.1
31332.0,-252.07
31345.0,-186.99
31358.0,-201.7
31372.0,-173.23
31385.0,-114.62
31398.0,-82.04
31412.0,-65.01
31425.0,-37.88
31438.0,-7.63
31452.0,14.21
31465.0,31.62
31478.0,50.22
31492.0,68.3
31505.0,83.88
31518.0,97.7
31532.0,112.02
31545.0,179.07
31558.0,405.86
31571.0,724.96
31585.0,857.4
31598.0,748.71
31611.0,654.91
31626.0,690.3
31639.0,693.95
31652.0,545.34
31666.0,334.91
31679.0,184.27
31692.0,108.24
31706.0,95.54
31719.0,135.95
31732.0,175.5
31746.0,149.74
31759.0,72.21
31772.0,30.07
31785.0,26.93
31799.0,-18.99
31812.0,-96.94
31825.0,-144.86
31839.0,-171.06
31852.0,-206.88
31865.0,-242.79
31879.0,-228.06
31892.0,-179.96
31905.0,-196.75
31919.0,-245.38
31932.0,-213.15
31945.0,-174.99
31959.0,-237.42
31972.0,-299.29
31985.0,-281.85
31998.0,-293.67
32012.0,-375.63
32025.0,-380.9
32038.0,-257.26
32052.0,-165.52
32065.0,-175.55
32078.0,-192.36
32092.0,-184.73
32105.0,-174.59
32118.0,-167.33
32132.0,-180.66
32145.0,-194.34
32158.0,-172.2
32172.0,-132.84
32185.0,-103.02
32198.0,-87.45
32211.0,-84.73
32225.0,-88.9
32238.0,-118.78
32251.0,-168.33
32265.0,-172.26
32279.0,-147.5
32292.0,-170.5
32306.0,-208.41
32319.0,-178.91
32332.0,-87.98
32346.0,-53.64
32359.0,-127.18
32372.0,-155.79
32386.0,-71.57
32399.0,-15.57
32412.0,-26.62
32425.0,-33.97
32439.0,-33.45
32452.0,-23.45
32465.0,2.29
32479.0,7.23
32492.0,-9.58
32505.0,-13.02
32519.0,2.29
32532.0,30.6
32545.0,53.49
32559.0,35.33
32572.0,8.3
32585.0,47.2
32599.0,113.89
32612.0,105.87
32625.0,44.53
32638.0,33.68
32652.0,76.48
32665.0,89.34
32678.0,65.05
32692.0,70.8
32705.0,104.13
32718.0,110.06
32732.0,94.93
32745.0,89.11
32758.0,80.89
32772.0,69.82
32785.0,81.5
32798.0,118.3
32812.0,155.93
32825.0,131.12
32838.0,46.17
32851.0,31.79
32865.0,115.34
32878.0,158.31
32891.0,100.49
32905.0,36.47
32919.0,37.97
32932.0,45.82
32946.0,20.6
32959.0,40.25
32972.0,114.94
32986.0,137.83
32999.0,100.21
33012.0,89.82
33026.0,115.56
33039.0,126.04
33052.0,106.52
33065.0,32.49
33079.0,-172.37
33092.0,-424.13
33105.0,-472.63
33119.0,-328.5
33132.0,-237.6
33145.0,-241.65
33159.0,-219.47
33172.0,-158.69
33185.0,-117.12
33199.0,-96.27
33212.0,-68.51
33225.0,-34.82
33239.0,-8.69
33252.0,11.1
33265.0,32.06
33278.0,54.19
33292.0,73.0
33305.0,88.18
33318.0,102.43
33332.0,116.12
33345.0,127.57
33358.0,136.85
33372.0,145.35
33385.0,152.88
33398.0,158.7
33412.0,163.33
33425.0,167.31
33438.0,170.64
33452.0,173.43
33465.0,174.98
33478.0,174.66
33491.0,173.29
33505.0,171.76
33518.0,195.75
33531.0,321.34
33545.0,568.73
33558.0,786.3
33572.0,820.35
33586.0,727.81
33599.0,646.11
33612.0,596.72
33626.0,534.59
33639.0,449.98
33652.0,359.84
33666.0,285.21
33679.0,243.69
33692.0,208.63
33705.0,148.46
33719.0,87.24
33732.0,35.83
33745.0,-25.98
33759.0,-98.36
33772.0,-173.77
33785.0,-226.91
33799.0,-208.79
33812.0,-124.82
33825.0,-61.28
33839.0,-95.88
33852.0,-211.11
33865.0,-314.1
33879.0,-355.51
33892.0,-381.56
33905.0,-419.63
33918.0,-444.27
33932.0,-468.4
33945.0,-495.0
33958.0,-479.86
33972.0,-435.55
33985.0,-411.37
33998.0,-405.78
34012.0,-403.3
34025.0,-398.86
34038.0,-386.69
34052.0,-376.86
34065.0,-358.49
34078.0,-316.38
34092.0,-292.42
34105.0,-307.05
34118.0,-314.76
34131.0,-286.96
34145.0,-239.88
34158.0,-204.94
34171.0,-210.59
34185.0,-247.41
34198.0,-258.63
34211.0,-215.24
34226.0,-163.12
34239.0,-162.02
34252.0,-178.27
34266.0,-130.95
34279.0,-64.6
34292.0,-73.26
34306.0,-116.99
34319.0,-106.27
34332.0,-47.8
34345.0,-5.66
34359.0,-5.78
34372.0,-24.03
34385.0,-23.82
34399.0,37.95
34412.0,155.29
34425.0,206.42
34439.0,141.78
34452.0,95.25
34465.0,107.66
34479.0,76.85
34492.0,5.57
34505.0,-9.16
34519.0,45.05
34532.0,81.82
34545.0,69.46
34558.0,43.22
34572.0,3.4
34585.0,-4.29
34598.0,76.47
34612.0,151.91
34625.0,137.52
34638.0,106.54
34652.0,128.28
34665.0,156.84
34678.0,119.21
34692.0,31.35
34705.0,-33.6
34718.0,-45.03
34732.0,-3.86
34745.0,81.35
34758.0,161.5
34771.0,184.54
34785.0,157.6
34798.0,131.6
34811.0,141.85
34825.0,154.13
34838.0,122.54
34851.0,82.84
34865.0,75.9
34879.0,84.0
34892.0,88.87
34906.0,82.37
34919.0,79.92
34932.0,112.98
34946.0,144.66
34959.0,111.59
34972.0,39.47
34985.0,7.83
34999.0,27.74
35012.0,43.09
35025.0,45.35
35039.0,74.85
35052.0,119.62
35065.0,137.54
35079.0,145.5
35092.0,162.84
35105.0,154.52
35119.0,121.43
35132.0,110.43
35145.0,129.7
35159.0,149.28
35172.0,156.13
35185.0,170.08
35198.0,188.3
35212.0,161.45
35225.0,83.11
35238.0,6.04
35252.0,-57.13
35265.0,-103.48
35278.0,-77.32
35292.0,27.21
35305.0,124.27
35318.0,147.38
35332.0,102.79
35345.0,34.57
35358.0,-38.95
35372.0,-183.07
35385.0,-409.93
35398.0,-534.14
35411.0,-451.93
35425.0,-332.91
35438.0,-304.03
35451.0,-293.38
35465.0,-244.04
35478.0,-193.32
35491.0,-164.38
35505.0,-137.94
35518.0,-104.8
35532.0,-74.7
35546.0,-50.94
35559.0,-28.04
35572.0,-5.17
35586.0,15.02
35599.0,32.78
35612.0,49.13
35625.0,63.8
35639.0,76.79
35652.0,88.62
35665.0,99.27
35679.0,108.71
35692.0,116.72
35705.0,123.41
35719.0,129.22
35732.0,133.96
35745.0,147.07
35759.0,234.04
35772.0,479.73
35785.0,793.81
35799.0,932.22
35812.0,825.42
35825.0,664.45
35838.0,594.81
35852.0,541.4
35865.0,433.78
35878.0,356.05
35892.0,366.61
35905.0,390.28
35918.0,340.82
35932.0,236.05
35945.0,144.0
35958.0,71.21
35972.0,-6.24
35985.0,-79.33
35998.0,-145.23
36012.0,-194.98
36025.0,-212.65
36038.0,-246.15
36051.0,-316.25
36065.0,-345.9
36078.0,-322.38
36091.0,-325.36
36105.0,-357.7
36118.0,-370.19
36131.0,-373.97
36145.0,-368.01
36158.0,-312.62
36172.0,-261.77
36186.0,-340.09
36199.0,-474.66
36212.0,-439.86
36226.0,-285.91
36239.0,-259.12
36252.0,-341.19
36265.0,-339.02
36279.0,-243.6
36292.0,-190.57
36305.0,-223.14
36319.0,-265.56
36332.0,-279.73
36345.0,-299.3
36359.0,-317.06
36372.0,-281.62
36385.0,-196.18
36399.0,-125.67
36412.0,-118.73
36425.0,-173.56
36439.0,-242.4
36452.0,-257.84
36465.0,-221.7
36478.0,-200.25
36492.0,-196.96
36505.0,-158.47
36518.0,-104.61
36532.0,-102.05
36545.0,-123.35
36558.0,-105.7
36572.0,-69.68
36585.0,-57.33
36598.0,-71.85
36612.0,-77.05
36625.0,-37.8
36638.0,-0.38
36652.0,-6.79
36665.0,-4.64
36678.0,41.38
36691.0,86.63
36705.0,82.94
36718.0,46.81
36731.0,41.84
36745.0,76.6
36758.0,98.78
36771.0,100.9
36785.0,105.8
36798.0,117.93
36811.0,147.61
36826.0,183.15
36839.0,192.29
36852.0,173.09
36866.0,129.2
36879.0,77.84
36892.0,72.61
36905.0,122.07
36919.0,161.39
36932.0,148.16
36945.0,115.58
36959.0,114.14
36972.0,136.89
36985.0,123.86
36999.0,61.48
37012.0,34.49
37025.0,87.1
37039.0,145.49
37052.0,140.79
37065.0,94.12
37079.0,84.14
37092.0,118.04
37105.0,104.75
37118.0,60.5
37132.0,90.12
37145.0,155.49
37158.0,188.93
37172.0,230.46
37185.0,278.43
37198.0,267.1
37212.0,103.39
37225.0,-238.18
37238.0,-501.52
37252.0,-450.2
37265.0,-274.66
37278.0,-225.4
37292.0,-237.13
37305.0,-191.13
37318.0,-126.08
37331.0,-94.23
37345.0,-72.54
37358.0,-37.66
37371.0,-2.95
37385.0,21.36
37398.0,42.91
37411.0,66.11
37425.0,86.84
37438.0,103.59
37451.0,119.23
37465.0,134.19
37479.0,146.35
37492.0,156.27
37506.0,166.29
37519.0,212.98
37532.0,382.65
37545.0,666.11
37559.0,899.08
37572.0,969.88
37585.0,899.45
37599.0,748.7
37612.0,602.95
37625.0,504.14
37639.0,413.54
37652.0,327.32
37665.0,293.32
37679.0,323.54
37692.0,330.28
37705.0,211.63
37719.0,44.66
37732.0,-28.27
37745.0,-31.27
37758.0,-54.19
37772.0,-113.76
37785.0,-202.64
37798.0,-273.92
37812.0,-247.88
37825.0,-172.98
37838.0,-165.52
37852.0,-225.46
37865.0,-280.14
37878.0,-259.26
37892.0,-193.08
37905.0,-198.9
37918.0,-252.48
37932.0,-275.77
37945.0,-300.84
37958.0,-316.91
37971.0,-298.39
37985.0,-293.73
37998.0,-307.21
38011.0,-300.03
38025.0,-270.99
38038.0,-252.94
38051.0,-276.3
38065.0,-310.78
38078.0,-290.37
38091.0,-236.8
38105.0,-228.45
38119.0,-251.23
38132.0,-251.96
38146.0,-235.34
38159.0,-207.55
38172.0,-177.09
38185.0,-175.5
38199.0,-193.63
38212.0,-194.21
38225.0,-163.52
38239.0,-135.35
38252.0,-161.33
38265.0,-197.25
38279.0,-170.97
38292.0,-123.91
38305.0,-95.02
38319.0,-66.86
38332.0,-66.37
38345.0,-90.35
38359.0,-58.91
38372.0,14.8
38385.0,28.49
38398.0,-6.08
38412.0,-11.1
38425.0,5.6
38438.0,-1.73
38452.0,-47.33
38465.0,-90.42
38478.0,-50.5
38492.0,44.23
38505.0,21.12
38518.0,-158.58
38532.0,-230.98
38545.0,-43.71
38558.0,138.6
38572.0,123.68
38585.0,66.65
38598.0,74.91
38611.0,93.35
38625.0,98.6
38638.0,99.16
38651.0,88.57
38665.0,81.37
38678.0,88.49
38691.0,91.37
38705.0,93.47
38718.0,96.15
38731.0,80.71
38745.0,74.47
38758.0,86.64
38772.0,60.76
38786.0,18.0
38799.0,23.45
38812.0,42.77
38825.0,54.22
38839.0,87.95
38852.0,107.77
38865.0,91.43
38879.0,80.67
38892.0,83.32
38905.0,90.62
38919.0,104.26
38932.0,118.36
38945.0,92.41
38959.0,-75.4
38972.0,-338.37
38985.0,-433.45
38999.0,-308.4
39012.0,-198.62
39025.0,-191.43
39038.0,-176.56
39052.0,-118.96
39065.0,-72.48
39078.0,37.79
39092.0,405.24
39105.0,830.56
39118.0,762.07
39132.0,309.7
39145.0,187.13
39158.0,474.39
39172.0,631.07
39185.0,490.8
39198.0,318.94
39212.0,249.14
39225.0,211.65
39238.0,175.08
39251.0,204.91
39265.0,278.1
39278.0,214.9
39291.0,30.21
39305.0,-17.27
39318.0,60.22
39331.0,34.97
39345.0,-40.09
39358.0,-17.05
39371.0,30.14
39385.0,17.94
39398.0,-38.7
39411.0,-136.17
39426.0,-241.34
39439.0,-276.15
39452.0,-223.19
39465.0,-146.59
39479.0,-110.77
39492.0,-112.8
39505.0,-95.37
39519.0,-57.23
39532.0,-57.74
39545.0,-80.2
39559.0,-80.11
39572.0,-79.11
39585.0,-95.0
39599.0,-133.23
39612.0,-170.9
39625.0,-158.06
39639.0,-107.33
39652.0,-64.35
39665.0,-61.73
39678.0,-93.24
39692.0,-90.62
39705.0,-51.32
39718.0,-50.55
39732.0,-75.44
39745.0,-66.99
39758.0,-34.77
39772.0,-20.39
39785.0,-35.95
39798.0,-45.47
39812.0,-30.24
39825.0,-22.39
39838.0,-35.87
39852.0,-55.0
39865.0,-64.45
39878.0,-57.96
39891.0,-41.35
39905.0,-30.74
39918.0,-21.47
39931.0,12.28
39945.0,16.47
39958.0,-75.19
39971.0,-153.68
39985.0,-129.44
39998.0,-127.55
40011.0,-194.7
40025.0,-191.88
40038.0,-85.87
40051.0,20.48
40065.0,63.46
40079.0,44.46
40092.0,-1.04
40105.0,-21.52
40119.0,1.07
40132.0,38.22
40145.0,70.16
40159.0,83.0
40172.0,51.89
40185.0,12.25
40199.0,8.48
40212.0,4.97
40225.0,-6.78
40239.0,19.71
40252.0,70.57
40265.0,82.32
40279.0,52.12
40292.0,43.89
40305.0,56.04
40318.0,31.23
40332.0,-3.22
40345.0,-13.23
40358.0,-25.35
40372.0,-21.62
40385.0,-2.18
40398.0,-14.52
40412.0,-20.49
40425.0,15.07
40438.0,28.98
40452.0,10.73
40465.0,13.36
40478.0,29.02
40492.0,42.46
40505.0,69.16
40518.0,76.29
40531.0,29.32
40545.0,-28.32
40558.0,-39.08
40571.0,-1.38
40585.0,45.42
40598.0,57.23
40611.0,37.77
40625.0,20.31
40638.0,-1.34
40651.0,-12.1
40665.0,23.86
40678.0,41.8
40691.0,-18.66
40705.0,-73.27
40718.0,-31.01
40732.0,60.04
40745.0,94.85
40759.0,58.89
40772.0,12.43
40785.0,-15.68
40799.0,-36.13
40812.0,-40.66
40825.0,-16.8
40839.0,-18.9
40852.0,-74.05
40865.0,-78.94
40879.0,12.83
40892.0,83.36
40905.0,24.51
40919.0,-163.1
40932.0,-377.74
40945.0,-460.29
40958.0,-378.97
40972.0,-280.31
40985.0,-250.61
40998.0,-232.39
41012.0,-185.41
41025.0,-138.49
41038.0,-108.54
41052.0,-81.39
41065.0,-49.97
41078.0,-21.17
41092.0,2.41
41105.0,24.72
41118.0,47.07
41132.0,67.04
41145.0,83.78
41158.0,99.36
41171.0,114.32
41185.0,127.89
41198.0,198.48
41211.0,456.1
41225.0,843.83
41238.0,1047.04
41251.0,950.67
41265.0,785.87
41278.0,698.67
41291.0,598.06
41305.0,438.52
41318.0,300.71
41331.0,196.34
41345.0,73.66
41358.0,-11.99
41371.0,19.48
41385.0,90.04
41399.0,82.08
41412.0,25.15
41425.0,9.69
41439.0,17.15
41452.0,-36.64
41465.0,-111.33
41479.0,-101.06
41492.0,-50.18
41505.0,-58.29
41519.0,-109.37
41532.0,-160.62
41545.0,-219.12
41559.0,-265.63
41572.0,-247.39
41585.0,-180.71
41598.0,-149.02
41612.0,-183.69
41625.0,-238.1
41638.0,-282.25
41652.0,-309.32
41665.0,-272.96
41678.0,-200.06
41692.0,-218.2
41705.0,-294.8
41718.0,-276.48
41732.0,-199.42
41745.0,-175.65
41758.0,-178.44
41772.0,-163.35
41785.0,-149.75
41798.0,-139.53
41811.0,-113.47
41825.0,-94.79
41838.0,-122.84
41851.0,-170.24
41865.0,-154.3
41878.0,-65.64
41891.0,-22.91
41905.0,-70.57
41918.0,-83.82
41931.0,-23.27
41945.0,15.8
41958.0,-1.86
41971.0,-59.66
41985.0,-128.76
41998.0,-150.05
42011.0,-100.94
42025.0,-34.55
42039.0,-24.86
42052.0,-57.9
42065.0,-52.32
42079.0,-8.91
42092.0,21.41
42105.0,18.97
42119.0,-18.77
42132.0,-49.97
42145.0,-56.95
42159.0,-95.2
42172.0,-148.43
42185.0,-144.7
42199.0,-106.06
42212.0,-58.91
42225.0,29.71
42238.0,107.68
42252.0,80.85
42265.0,16.33
42278.0,57.36
42292.0,154.8
42305.0,162.9
42318.0,106.09
42332.0,84.77
42345.0,105.58
42358.0,108.88
42372.0,47.77
42385.0,-28.77
42398.0,-29.86
42412.0,17.74
42425.0,31.07
42438.0,29.99
42451.0,65.49
42465.0,120.35
42478.0,158.5
42491.0,154.68
42505.0,93.2
42518.0,24.57
42531.0,28.19
42545.0,81.24
42558.0,108.06
42571.0,100.36
42585.0,87.29
42598.0,70.62
42611.0,59.28
42625.0,101.87
42638.0,145.1
42651.0,69.94
42664.0,-74.23
42679.0,-231.25
42692.0,-408.08
42705.0,-456.84
42719.0,-332.93
42732.0,-234.12
42745.0,-226.4
42759.0,-205.45
42772.0,-147.64
42785.0,-103.71
42799.0,-79.33
42812.0,-50.24
42825.0,-16.05
42839.0,11.5
42852.0,33.12
42865.0,54.8
42878.0,76.45
42892.0,95.84
42905.0,112.59
42918.0,127.2
42932.0,140.32
42945.0,152.15
42958.0,162.36
42972.0,187.59
42985.0,316.08
42998.0,638.84
43012.0,996.38
43025.0,1079.37
43038.0,904.41
43052.0,754.26
43065.0,708.72
43078.0,651.93
43091.0,555.23
43105.0,472.18
43118.0,402.05
43131.0,295.79
43145.0,134.92
43158.0,-32.84
43171.0,-125.54
43185.0,-125.07
43198.0,-101.84
43211.0,-95.4
43225.0,-89.62
43238.0,-95.3
43251.0,-121.81
43265.0,-161.45
43278.0,-232.71
43291.0,-300.63
43304.0,-284.23
43318.0,-217.06
43332.0,-213.86
43345.0,-299.93
43359.0,-343.06
43372.0,-242.3
43385.0,-141.64
43399.0,-179.98
43412.0,-258.93
43425.0,-281.83
43439.0,-280.13
43452.0,-268.48
43465.0,-237.24
43479.0,-229.04
43492.0,-264.88
43505.0,-281.43
43518.0,-230.99
43532.0,-171.23
43545.0,-206.06
43558.0,-286.97
43572.0,-240.25
43585.0,-114.04
43598.0,-114.68
43612.0,-219.05
43625.0,-254.92
43638.0,-206.53
43652.0,-181.28
43665.0,-189.77
43678.0,-169.09
43692.0,-151.23
43705.0,-194.41
43718.0,-226.71
43731.0,-151.0
43745.0,-27.31
43758.0,46.04
43771.0,73.8
43785.0,40.29
43798.0,-76.85
43811.0,-181.63
43825.0,-190.57
43838.0,-151.09
43851.0,-121.27
43865.0,-92.43
43878.0,-52.92
43891.0,-17.49
43905.0,10.32
43918.0,26.26
43931.0,-1.93
43944.0,-50.81
43958.0,-37.54
43972.0,11.72
43985.0,9.05
43999.0,-7.73
44012.0,9.25
44025.0,3.27
44039.0,-32.23
44052.0,-17.55
44065.0,37.18
44079.0,32.85
44092.0,-6.15
44105.0,48.56
44119.0,176.91
44132.0,214.11
44145.0,125.76
44158.0,85.65
44172.0,181.81
44185.0,254.77
44198.0,201.89
44212.0,134.34
44225.0,123.59
44238.0,98.21
44252.0,20.1
44265.0,-43.63
44278.0,-48.77
44292.0,5.34
44305.0,106.56
44318.0,183.5
44332.0,216.43
44345.0,271.42
44358.0,324.88
44371.0,289.94
44385.0,190.88
44398.0,139.61
44411.0,148.49
44425.0,117.12
44438.0,58.68
44451.0,74.6
44465.0,111.15
44478.0,97.54
44491.0,119.24
44505.0,172.29
44518.0,148.4
44531.0,91.18
44545.0,80.58
44558.0,66.58
44571.0,-2.37
44584.0,-72.81
44598.0,-13.26
44611.0,138.59
44625.0,18.98
44639.0,-419.84
44652.0,-613.79
44665.0,-396.9
44679.0,-235.38
44692.0,-277.93
44705.0,-285.75
44719.0,-205.9
44732.0,-153.79
44745.0,-143.88
44759.0,-120.06
44772.0,-79.64
44785.0,-50.09
44798.0,-31.7
44812.0,-11.45
44825.0,19.78
44838.0,103.79
44852.0,260.06
44865.0,379.32
44878.0,444.22
44892.0,634.11
44905.0,855.75
44918.0,780.51
44932.0,503.73
44945.0,385.59
44958.0,433.17
44972.0,431.52
44985.0,333.25
44998.0,229.14
45011.0,153.92
45025.0,67.01
45038.0,-16.03
45051.0,-33.32
45065.0,25.43
45078.0,105.39
45091.0,88.38
45105.0,-42.0
45118.0,-114.49
45131.0,-67.61
45145.0,-38.79
45158.0,-108.16
45171.0,-224.5
45185.0,-298.51
45198.0,-310.4
45211.0,-318.85
45224.0,-309.11
45238.0,-229.07
45251.0,-151.92
45264.0,-168.29
45279.0,-236.05
45292.0,-256.78
45305.0,-220.55
45319.0,-204.34
45332.0,-231.08
45345.0,-227.46
45359.0,-157.62
45372.0,-97.2
45385.0,-110.44
45399.0,-158.4
45412.0,-186.46
45425.0,-187.49
45438.0,-162.65
45452.0,-132.06
45465.0,-133.44
45478.0,-143.35
45492.0,-132.35
45505.0,-148.48
45518.0,-182.63
45532.0,-158.59
45545.0,-122.27
45558.0,-142.13
45572.0,-153.88
45585.0,-130.26
45598.0,-128.88
45612.0,-130.09
45625.0,-95.55
45638.0,-62.59
45651.0,-60.17
45665.0,-103.9
45678.0,-149.69
45691.0,-92.81
45705.0,4.83
45718.0,1.78
45731.0,-50.84
45745.0,-33.88
45758.0,27.65
45771.0,37.56
45785.0,-4.0
45798.0,-26.24
45811.0,-16.29
45825.0,4.01
45838.0,46.94
45851.0,99.96
45864.0,99.0
45878.0,45.23
45891.0,22.82
45904.0,56.18
45919.0,73.64
45932.0,41.71
45945.0,15.44
45959.0,25.3
45972.0,39.43
45985.0,59.96
45999.0,114.8
46012.0,185.09
46025.0,248.09
46039.0,272.48
46052.0,212.87
46065.0,111.08
46078.0,37.47
46092.0,-1.35
46105.0,-7.23
46118.0,13.55
46132.0,35.21
46145.0,33.35
46158.0,-0.54
46172.0,-34.63
46185.0,-17.35
46198.0,49.1
46212.0,106.43
46225.0,126.3
46238.0,124.88
46252.0,100.6
46265.0,38.14
46278.0,-32.94
46291.0,-53.19
46305.0,-42.76
46318.0,-88.01
46331.0,-175.28
46345.0,-182.92
46358.0,-84.5
46371.0,14.08
46385.0,34.33
46398.0,-32.69
46411.0,-100.45
46425.0,-43.36
46438.0,67.78
46451.0,74.96
46465.0,25.84
46478.0,42.34
46491.0,88.7
46504.0,87.26
46518.0,72.28
46531.0,52.79
46544.0,-0.89
46558.0,-6.51
46571.0,8.46
46585.0,-130.02
46599.0,-309.86
46612.0,-287.09
46625.0,-155.2
46639.0,-112.8
46652.0,-123.5
46665.0,-91.98
46679.0,-41.54
46692.0,-16.76
46705.0,-3.46
46718.0,20.35
46732.0,46.48
46745.0,64.04
46758.0,78.53
46772.0,94.25
46785.0,107.08
46798.0,117.25
46812.0,128.66
46825.0,139.8
46838.0,146.83
46852.0,154.48
46865.0,212.07
46878.0,415.31
46892.0,732.84
46905.0,922.57
46918.0,860.46
46931.0,728.41
46945.0,683.38
46958.0,659.16
46971.0,564.27
46985.0,412.12
46998.0,272.73
47011.0,189.82
47025.0,119.81
47038.0,38.95
47051.0,26.28
47065.0,51.61
47078.0,-11.65
47091.0,-96.5
47105.0,-103.13
47118.0,-111.89
47131.0,-163.5
47144.0,-218.66
47158.0,-267.93
47171.0,-257.47
47184.0,-177.85
47198.0,-158.91
47211.0,-240.09
47224.0,-295.87
47239.0,-275.75
47252.0,-262.61
47265.0,-292.76
47279.0,-302.57
47292.0,-269.48
47305.0,-242.44
47319.0,-200.95
47332.0,-103.04
47345.0,-69.45
47358.0,-200.05
47372.0,-318.41
47385.0,-280.52
47398.0,-227.68
47412.0,-249.08
47425.0,-258.66
47438.0,-238.82
47452.0,-220.54
47465.0,-217.17
47478.0,-247.74
47492.0,-266.5
47505.0,-250.41
47518.0,-250.02
47532.0,-236.89
47545.0,-170.08
47558.0,-110.95
47571.0,-100.35
47585.0,-114.58
47598.0,-132.68
47611.0,-128.55
47625.0,-93.67
47638.0,-77.17
47651.0,-109.02
47665.0,-140.36
47678.0,-128.38
47691.0,-107.85
47705.0,-105.18
47718.0,-90.4
47731.0,-60.83
47745.0,-37.74
47758.0,-24.49
47771.0,-30.34
47784.0,-45.53
47798.0,-30.61
47811.0,2.28
47824.0,11.34
47838.0,23.8
47851.0,36.15
47864.0,-1.29
47879.0,-24.62
47892.0,-19.3
47905.0,-79.12
47919.0,-116.68
47932.0,-39.05
47945.0,24.9
47959.0,28.53
47972.0,47.97
47985.0,55.82
47998.0,39.68
48012.0,66.34
48025.0,114.47
48038.0,127.96
48052.0,121.22
48065.0,127.81
48078.0,161.82
48092.0,199.23
48105.0,219.33
48118.0,216.96
48132.0,161.13
48145.0,74.38
48158.0,37.45
48172.0,57.12
48185.0,76.89
48198.0,81.12
48211.0,94.01
48225.0,140.3
48238.0,199.0
48251.0,191.95
48265.0,115.95
48278.0,69.03
48291.0,74.9
48305.0,77.09
48318.0,83.14
48331.0,98.43
48345.0,80.38
48358.0,69.28
48371.0,89.43
48385.0,76.43
48398.0,49.85
48411.0,59.32
48424.0,67.91
48438.0,53.82
48451.0,43.84
48464.0,49.07
48478.0,62.91
48491.0,75.29
48504.0,69.66
48518.0,34.36
48532.0,10.61
48545.0,64.33
48559.0,135.59
48572.0,115.41
48585.0,61.95
48599.0,40.18
48612.0,24.95
48625.0,36.67
48638.0,-37.78
48652.0,-297.23
48665.0,-452.64
48678.0,-329.87
48692.0,-197.74
48705.0,-203.87
48718.0,-210.37
48732.0,-156.91
48745.0,-110.59
48758.0,-93.52
48772.0,-75.11
48785.0,-48.17
48798.0,-24.86
48812.0,-5.38
48825.0,14.53
48838.0,31.69
48851.0,72.74
48865.0,221.89
48878.0,480.12
48891.0,666.43
48905.0,695.41
48918.0,720.97
48931.0,783.16
48945.0,738.64
48958.0,601.11
48971.0,507.1
48985.0,462.16
48998.0,401.34
49011.0,327.49
49025.0,267.09
49038.0,214.95
49051.0,162.19
49064.0,112.58
49078.0,40.98
49091.0,-91.21
49104.0,-213.69
49118.0,-234.61
49131.0,-252.1
49144.0,-356.38
49158.0,-428.65
49171.0,-407.8
49185.0,-389.64
49199.0,-401.99
49212.0,-401.04
49225.0,-377.43
49239.0,-336.64
49252.0,-308.18
49265.0,-340.33
49278.0,-409.05
49292.0,-430.63
49305.0,-379.16
49318.0,-303.27
49332.0,-254.05
49345.0,-236.48
49358.0,-217.59
49372.0,-184.35
49385.0,-182.01
49398.0,-243.66
49412.0,-288.84
49425.0,-217.46
49438.0,-104.85
49452.0,-97.09
49465.0,-161.04
49478.0,-173.25
49491.0,-132.78
49505.0,-102.75
49518.0,-96.27
49531.0,-103.43
49545.0,-97.92
49558.0,-55.09
49571.0,-18.3
49585.0,-32.27
49598.0,-62.5
49611.0,-58.41
49625.0,-26.02
49638.0,-11.18
49651.0,-29.22
49665.0,-54.2
49678.0,-58.71
49691.0,-13.82
49704.0,50.24
49718.0,53.19
49731.0,36.73
49744.0,73.06
49758.0,72.18
49771.0,-5.14
49784.0,-12.12
49798.0,78.36
49811.0,113.71
49825.0,66.65
49839.0,35.1
49852.0,46.72
49865.0,72.61
49879.0,84.96
49892.0,88.96
49905.0,104.07
49918.0,98.34
49932.0,73.83
49945.0,85.48
49958.0,94.84
49972.0,53.84
49985.0,36.29
49998.0,62.05
50012.0,48.2
50025.0,24.28
50038.0,70.99
50052.0,130.24
50065.0,120.88
50078.0,70.35
50092.0,51.34
50105.0,75.19
50118.0,78.43
50131.0,34.38
50145.0,7.33
50158.0,57.48
50171.0,144.45
50185.0,176.76
50198.0,130.83
50211.0,65.96
50225.0,65.39
50238.0,123.76
50251.0,116.5
50265.0,21.23
50278.0,-30.85
50291.0,-2.49
50305.0,32.97
50318.0,60.1
50331.0,107.38
50344.0,149.43
50358.0,126.16
50371.0,51.43
50384.0,-6.03
50398.0,-39.93
50411.0,-50.13
50424.0,3.11
50438.0,71.66
50451.0,83.44
50464.0,52.48
50479.0,-10.31
50492.0,-75.24
50505.0,-67.93
50519.0,-8.0
50532.0,0.82
50545.0,-57.07
50558.0,-81.46
50572.0,-8.2
50585.0,124.72
50598.0,242.17
50612.0,270.05
50625.0,188.49
50638.0,27.79
50652.0,-201.88
50665.0,-421.24
50678.0,-474.71
50692.0,-374.62
50705.0,-289.75
50718.0,-272.26
50732.0,-250.26
50745.0,-201.7
50758.0,-160.21
50771.0,-134.19
50785.0,-108.35
50798.0,-78.36
50811.0,-51.11
50825.0,-28.95
50838.0,-8.26
50851.0,12.73
50865.0,31.74
50878.0,48.68
50891.0,65.26
50905.0,79.41
50918.0,89.63
50931.0,99.3
50945.0,110.06
50958.0,150.13
50971.0,307.0
50984.0,597.81
50998.0,857.38
51011.0,909.39
51024.0,741.94
51038.0,511.81
51051.0,424.6
51064.0,485.03
51078.0,511.45
51091.0,445.3
51104.0,364.59
51118.0,288.41
51132.0,203.8
51145.0,119.77
51159.0,18.06
51172.0,-83.76
51185.0,-120.0
51198.0,-115.34
51212.0,-142.46
51225.0,-184.36
51238.0,-196.22
51252.0,-188.4
51265.0,-187.8
51278.0,-206.11
51292.0,-235.2
51305.0,-251.96
51318.0,-252.81
51332.0,-262.59
51345.0,-290.48
51358.0,-291.66
51372.0,-257.59
51385.0,-257.87
51398.0,-272.3
51411.0,-235.18
51425.0,-216.16
51438.0,-250.55
51451.0,-251.31
51465.0,-236.23
51478.0,-272.38
51491.0,-297.39
51505.0,-249.2
51518.0,-170.48
51531.0,-145.04
51545.0,-206.85
51558.0,-272.5
51571.0,-236.37
51585.0,-138.33
51598.0,-106.37
51611.0,-146.34
51624.0,-158.26
51638.0,-132.72
51651.0,-131.14
51664.0,-141.98
51678.0,-133.7
51691.0,-133.27
51704.0,-149.7
51718.0,-139.25
51731.0,-79.21
51744.0,-26.25
51758.0,-43.87
51771.0,-71.97
51785.0,-25.45
51799.0,43.12
51812.0,53.67
51825.0,13.09
51838.0,-7.94
51852.0,42.13
51865.0,78.42
51878.0,15.22
51892.0,-64.4
51905.0,-66.69
51918.0,-6.94
51932.0,58.36
51945.0,88.64
51958.0,98.5
51972.0,120.58
51985.0,134.08
51998.0,115.58
52012.0,74.05
52025.0,16.13
52038.0,-16.92
52051.0,20.83
52065.0,71.59
52078.0,68.09
52091.0,42.48
52105.0,28.86
52118.0,37.23
52131.0,74.13
52145.0,102.8
52158.0,114.81
52171.0,123.0
52185.0,83.08
52198.0,4.17
52211.0,-9.52
52225.0,64.42
52238.0,117.35
52251.0,95.77
52264.0,54.9
52278.0,26.66
52291.0,30.98
52304.0,76.91
52318.0,91.82
52331.0,46.61
52344.0,9.48
52358.0,13.08
52371.0,43.48
52384.0,85.46
52398.0,87.54
52411.0,28.03
52425.0,1.29
52439.0,58.91
52452.0,81.96
52465.0,0.95
52478.0,-34.8
52492.0,53.57
52505.0,93.8
52518.0,-15.96
52532.0,-203.33
52545.0,-366.23
52558.0,-381.7
52572.0,-267.69
52585.0,-191.03
52598.0,-183.88
52612.0,-159.03
52625.0,-105.61
52638.0,-66.7
52652.0,-45.25
52665.0,-19.81
52678.0,9.61
52691.0,33.57
52705.0,53.88
52718.0,75.22
52731.0,94.83
52745.0,109.56
52758.0,121.95
52771.0,148.04
52785.0,255.33
52798.0,518.98
52811.0,811.65
52825.0,854.73
52838.0,671.33
52851.0,592.02
52865.0,705.29
52878.0,761.05
52891.0,622.34
52904.0,435.7
52918.0,331.16
52931.0,265.96
52944.0,173.21
52958.0,59.7
52971.0,-7.94
52984.0,-13.45
52998.0,-40.95
53011.0,-117.36
53024.0,-160.99
53038.0,-134.19
53051.0,-95.82
53064.0,-98.2
53079.0,-127.11
53092.0,-143.69
53105.0,-136.14
53118.0,-122.08
53132.0,-117.86
53145.0,-129.54
53158.0,-161.62
53172.0,-195.9
53185.0,-216.25
53198.0,-243.99
53212.0,-264.72
53225.0,-251.05
53238.0,-253.8
53252.0,-300.55
53265.0,-329.8
53278.0,-295.34
53292.0,-228.89
53305.0,-176.46
53318.0,-136.72
53331.0,-142.39
53345.0,-218.74
53358.0,-250.79
53371.0,-178.23
53385.0,-146.21
53398.0,-240.63
53411.0,-309.8
53425.0,-236.49
53438.0,-150.37
53451.0,-168.12
53465.0,-204.22
53478.0,-156.61
53491.0,-59.53
53505.0,-19.29
53518.0,-65.25
53531.0,-105.66
53544.0,-79.39
53558.0,-41.63
53571.0,-21.53
53584.0,14.22
53598.0,32.82
53611.0,-8.39
53624.0,-48.15
53638.0,-42.91
53651.0,-49.88
53664.0,-93.37
53678.0,-122.55
53691.0,-97.48
53704.0,-31.9
53719.0,12.86
53732.0,15.9
53745.0,23.14
53758.0,28.62
53772.0,-4.31
53785.0,-30.22
53798.0,11.09
53812.0,90.71
53825.0,135.04
53838.0,104.03
53852.0,32.03
53865.0,3.06
53878.0,29.41
53892.0,49.78
53905.0,39.75
53918.0,28.8
53932.0,40.33
53945.0,48.02
53958.0,41.64
53971.0,42.26
53985.0,36.29
53998.0,35.25
54011.0,70.56
54025.0,92.22
54038.0,59.88
54051.0,42.69
54065.0,68.68
54078.0,73.07
54091.0,69.32
54105.0,103.68
54118.0,119.91
54131.0,92.56
54145.0,73.81
54158.0,77.8
54171.0,86.56
54184.0,37.53
54198.0,-61.38
54211.0,-40.31
54224.0,92.81
54238.0,126.94
54251.0,71.93
54264.0,82.41
54278.0,117.78
54291.0,68.31
54304.0,-22.12
54318.0,-35.5
54331.0,80.79
54344.0,215.52
54358.0,189.6
54371.0,-16.43
54385.0,-300.64
54398.0,-501.74
54412.0,-477.73
54425.0,-335.81
54438.0,-273.54
54452.0,-272.13
54465.0,-235.07
54478.0,-177.11
54492.0,-140.22
54505.0,-114.7
54518.0,-82.53
54532.0,-48.74
54545.0,-21.82
54558.0,0.22
54572.0,23.26
54585.0,46.8
54598.0,66.44
54611.0,82.95
54625.0,99.68
54638.0,114.73
54651.0,125.88
54665.0,135.62
54678.0,146.05
54691.0,155.5
54705.0,162.26
54718.0,185.99
54731.0,305.41
54745.0,578.34
54758.0,869.74
54771.0,959.13
54785.0,830.41
54798.0,640.63
54811.0,491.43
54824.0,404.72
54838.0,382.52
54851.0,370.34
54864.0,307.97
54878.0,221.3
54891.0,143.82
54904.0,95.2
54918.0,110.25
54931.0,110.65
54944.0,10.29
54958.0,-66.37
54971.0,-49.6
54984.0,-79.52
54998.0,-169.99
55011.0,-198.39
55025.0,-172.12
55038.0,-177.29
55052.0,-231.87
55065.0,-264.56
55078.0,-198.28
55092.0,-97.37
55105.0,-96.07
55118.0,-180.56
55132.0,-228.88
55145.0,-196.07
55158.0,-168.7
55172.0,-238.53
55185.0,-358.51
55198.0,-431.27
55212.0,-441.04
55225.0,-408.05
55238.0,-376.09
55251.0,-421.56
55265.0,-540.38
55278.0,-633.65
55291.0,-631.92
55305.0,-551.34
55318.0,-433.4
55331.0,-254.97
55345.0,-10.4
55358.0,159.29
55371.0,175.38
55385.0,177.63
55398.0,215.63
55411.0,160.21
55425.0,24.95
55438.0,-37.25
55451.0,6.8
55464.0,53.58
55478.0,27.7
55491.0,-17.63
55504.0,-14.61
55518.0,-5.36
55531.0,-26.25
55544.0,-29.97
55558.0,6.99
55571.0,47.63
55584.0,48.38
55598.0,12.41
55611.0,-0.12
55624.0,15.79
55638.0,-18.2
55651.0,-68.9
55664.0,-23.25
55678.0,49.19
55692.0,27.25
55705.0,-8.63
55718.0,30.61
55732.0,59.94
55745.0,28.58
55758.0,17.99
55772.0,43.88
55785.0,39.47
55798.0,13.07
55812.0,28.16
55825.0,79.27
55838.0,94.45
55852.0,67.0
55865.0,74.68
55878.0,109.98
55891.0,63.58
55905.0,-46.14
55918.0,-80.51
55931.0,-31.31
55945.0,10.19
55958.0,22.28
55971.0,27.11
55985.0,14.61
55998.0,-17.96
56011.0,-14.18
56025.0,29.9
56038.0,39.27
56051.0,20.23
56065.0,32.95
56078.0,46.25
56091.0,0.13
56104.0,-58.46
56118.0,-35.42
56131.0,50.46
56144.0,101.88
56158.0,91.45
56171.0,66.99
56184.0,59.92
56198.0,46.83
56211.0,20.28
56224.0,17.66
56238.0,31.76
56251.0,36.36
56264.0,44.54
56278.0,26.83
56291.0,-13.11
56304.0,30.15
56317.0,132.74
56332.0,142.54
56345.0,59.49
56358.0,-20.0
56372.0,-62.95
56385.0,-11.88
56398.0,107.01
56412.0,91.39
56425.0,-49.78
56438.0,-73.95
56452.0,19.16
56465.0,21.6
56478.0,-145.95
56492.0,-365.23
56505.0,-445.31
56518.0,-359.0
56531.0,-263.29
56545.0,-236.44
56558.0,-216.82
56571.0,-169.5
56585.0,-123.45
56598.0,-93.3
56611.0,-66.35
56625.0,-36.98
56638.0,-10.2
56651.0,12.67
56665.0,33.78
56678.0,53.94
56691.0,73.23
56705.0,91.48
56718.0,108.39
56731.0,123.29
56744.0,134.35
56758.0,142.63
56771.0,151.9
56784.0,184.38
56798.0,320.77
56811.0,610.75
56824.0,878.52
56838.0,874.52
56851.0,683.94
56864.0,602.27
56878.0,643.56
56891.0,628.39
56904.0,543.11
56918.0,442.14
56931.0,340.3
56944.0,281.45
56957.0,266.91
56971.0,251.92
56985.0,200.36
56998.0,89.57
57012.0,0.01
57025.0,32.08
57038.0,93.67
57052.0,44.8
57065.0,-53.65
57078.0,-60.27
57092.0,-7.23
57105.0,-43.97
57118.0,-148.56
57132.0,-163.97
57145.0,-106.27
57158.0,-109.5
57171.0,-169.71
57185.0,-203.15
57198.0,-207.7
57211.0,-223.33
57225.0,-248.97
57238.0,-264.73
57251.0,-271.3
57265.0,-279.23
57278.0,-289.77
57291.0,-298.39
57305.0,-404.85
57318.0,-787.96
57331.0,-1242.81
57345.0,-1280.78
57358.0,-983.13
57371.0,-824.68
57384.0,-834.6
57398.0,-776.48
57411.0,-651.98
57424.0,-570.34
57438.0,-521.88
57451.0,-456.6
57464.0,-382.69
57478.0,-322.09
57491.0,-268.75
57504.0,-213.46
57518.0,-161.12
57531.0,-115.81
57544.0,-73.32
57558.0,-31.0
57571.0,7.73
57584.0,41.73
57597.0,74.27
57611.0,105.61
57624.0,134.07
57638.0,158.79
57652.0,181.63
57665.0,204.08
57678.0,224.05
57692.0,240.16
57705.0,254.89
57718.0,269.87
57732.0,282.77
57745.0,292.79
57758.0,301.96
57772.0,310.04
57785.0,315.88
57798.0,320.41
57811.0,323.2
57825.0,324.11
57838.0,324.98
57851.0,325.05
57865.0,323.27
57878.0,320.37
57891.0,316.78
57905.0,313.42
57918.0,310.38
57931.0,304.8
57945.0,296.48
57958.0,288.73
57971.0,282.93
57985.0,276.52
57998.0,267.25
58011.0,256.52
58024.0,246.69
58038.0,237.48
58051.0,227.7
58064.0,217.94
58078.0,208.16
58091.0,198.03
58104.0,188.23
58118.0,177.48
58131.0,164.46
58144.0,151.88
58158.0,142.17
58171.0,132.86
58184.0,121.32
58198.0,109.22
58211.0,98.25
58224.0,87.76
58237.0,77.52
58251.0,67.73
58264.0,57.59
58277.0,46.95
58292.0,36.95
58305.0,28.01
58318.0,18.84
58332.0,8.98
58345.0,-0.38
58358.0,-8.57
58372.0,-16.3
58385.0,-23.75
58398.0,-31.1
58412.0,-39.12
58425.0,-47.18
58438.0,-54.03
58451.0,-60.02
58465.0,-66.1
58478.0,-72.09
58491.0,-77.47
58505.0,-82.06
58518.0,-86.29
58531.0,-90.92
58545.0,-95.51
58558.0,-99.01
58571.0,-102.27
58585.0,-106.59
58598.0,-110.92
58611.0,-113.7
58625.0,-115.46
58638.0,-117.39
58651.0,-119.16
58664.0,-120.05
58678.0,-120.94
58691.0,-122.64
58704.0,-123.67
58718.0,-122.74
58731.0,-121.63
58744.0,-122.43
58758.0,-123.73
58771.0,-123.15
58784.0,-121.48
58798.0,-120.48
58811.0,-119.93
58824.0,-119.09
58838.0,-117.37
58851.0,-114.37
58864.0,-111.37
58877.0,-110.08
58891.0,-109.55
58904.0,-107.73
58917.0,-104.68
58932.0,-101.72
58945.0,-98.88
58958.0,-95.47
58972.0,-91.98
